title:not_thinking_counting, start timestamp:2020-01-08T16:43:22.166387-06:00, stop timestamp:2020-01-08T16:43:35.732961-06:00, headset type:EPOCFLEX, headset serial:F00000F7, headset firmware:f12, subject name:Kat, channels:74, sampling rate:128, samples:1749      , version:2.0
Timestamp,EEG.Counter,EEG.Interpolated,EEG.Cz,EEG.Fz,EEG.Fp1,EEG.F7,EEG.F3,EEG.FC1,EEG.C3,EEG.FC5,EEG.FT9,EEG.T7,EEG.TP9,EEG.CP5,EEG.CP1,EEG.P3,EEG.P7,EEG.O1,EEG.Pz,EEG.Oz,EEG.O2,EEG.P8,EEG.P4,EEG.CP2,EEG.CP6,EEG.TP10,EEG.T8,EEG.FT10,EEG.FC6,EEG.C4,EEG.FC2,EEG.F4,EEG.F8,EEG.Fp2,EEG.HighBitFlex,EEG.RawCq,EEG.Battery,MarkerIndex,MarkerType,MarkerValueInt,EEG.MarkerHardware,CQ.Cz,CQ.Fz,CQ.Fp1,CQ.F7,CQ.F3,CQ.FC1,CQ.C3,CQ.FC5,CQ.FT9,CQ.T7,CQ.TP9,CQ.CP5,CQ.CP1,CQ.P3,CQ.P7,CQ.O1,CQ.Pz,CQ.Oz,CQ.O2,CQ.P8,CQ.P4,CQ.CP2,CQ.CP6,CQ.TP10,CQ.T8,CQ.FT10,CQ.FC6,CQ.C4,CQ.FC2,CQ.F4,CQ.F8,CQ.Fp2
1578523402.166387,45.000000,0.000000,27.357763,-59.465683,-798.939514,-62.185810,33.931377,-28.514389,37.457066,34.046227,92.624908,-28.774740,73.070862,107.246445,86.179024,110.824257,168.201096,141.710846,84.087425,62.577236,208.803650,130.409409,52.174541,87.998558,38.355450,45.578312,-6.506833,70.128761,-129.135849,73.306267,-7.483247,-79.550056,29.944775,-568.520325,8192.000000,0.000000,-1.000000,,,,0.000000,4.000000,4.000000,4.000000,4.000000,4.000000,4.000000,4.000000,4.000000,4.000000,4.000000,4.000000,4.000000,4.000000,4.000000,4.000000,4.000000,4.000000,3.000000,4.000000,4.000000,4.000000,4.000000,4.000000,4.000000,4.000000,4.000000,3.000000,4.000000,3.000000,4.000000,4.000000,4.000000
1578523402.174036,46.000000,0.000000,27.330406,-59.406216,-799.679016,-62.123623,33.897446,-28.485874,31.265762,31.960899,92.532280,-28.233145,78.638817,107.652023,81.477455,110.200615,169.571350,138.492203,82.464874,63.540298,207.056396,123.099518,46.994164,87.910561,38.317093,49.122478,4.268905,70.058632,-131.570816,73.232964,-7.475764,-79.470505,28.889189,-572.054382,8064.000000,0.000000,-1.000000,,,,0.000000,4.000000,4.000000,4.000000,4.000000,4.000000,4.000000,4.000000,4.000000,4.000000,4.000000,4.000000,4.000000,4.000000,4.000000,4.000000,4.000000,4.000000,3.000000,4.000000,4.000000,4.000000,4.000000,4.000000,4.000000,4.000000,4.000000,3.000000,4.000000,3.000000,4.000000,4.000000,4.000000
1578523402.181785,47.000000,0.000000,27.303076,-59.346809,-800.930664,-59.497398,33.350727,-28.457388,28.157574,30.903297,93.465393,-29.743372,98.047356,99.852058,77.806236,107.013489,147.863312,142.969101,79.818306,61.425476,204.798050,121.437958,45.921528,87.822655,32.637753,16.765663,-28.043056,74.603958,-132.464890,70.082809,-7.468288,-79.391037,35.526966,-574.046448,8192.000000,0.000000,-1.000000,,,,0.000000,4.000000,4.000000,4.000000,4.000000,4.000000,4.000000,4.000000,4.000000,4.000000,4.000000,4.000000,4.000000,4.000000,4.000000,4.000000,4.000000,4.000000,3.000000,4.000000,4.000000,4.000000,4.000000,4.000000,4.000000,4.000000,4.000000,3.000000,4.000000,3.000000,4.000000,4.000000,4.000000
1578523402.189434,48.000000,0.000000,27.275772,-59.287464,-795.514343,-55.335335,33.317379,-28.428930,31.206339,32.410854,99.012955,-27.149527,108.718536,99.752205,79.779709,107.932114,132.330841,150.518433,81.789772,66.492256,212.798386,120.290878,48.439709,87.734825,34.656395,18.800179,-38.784245,83.247307,-133.358063,70.525543,-7.460820,-79.824463,39.594002,-570.395447,8064.000000,0.000000,-1.000000,,,,0.000000,4.000000,4.000000,4.000000,4.000000,4.000000,4.000000,4.000000,4.000000,4.000000,4.000000,4.000000,4.000000,4.000000,4.000000,4.000000,4.000000,4.000000,3.000000,4.000000,4.000000,4.000000,4.000000,4.000000,4.000000,4.000000,4.000000,3.000000,4.000000,3.000000,4.000000,4.000000,4.000000
1578523402.197283,49.000000,0.000000,27.248497,-59.228176,-791.129089,-54.767181,33.796883,-28.400503,38.354618,36.993828,106.093430,-17.378788,107.584183,118.626816,84.315315,125.260078,165.019012,172.419205,86.836189,79.246277,237.200974,121.709045,54.545116,87.647095,36.673019,51.601891,-5.924947,85.728157,-132.711884,77.121689,-7.453359,-79.231819,40.067230,-568.799438,8192.000000,0.000000,-1.000000,,,,0.000000,4.000000,4.000000,4.000000,4.000000,4.000000,4.000000,4.000000,4.000000,4.000000,4.000000,4.000000,4.000000,4.000000,4.000000,4.000000,4.000000,4.000000,3.000000,4.000000,4.000000,4.000000,4.000000,4.000000,4.000000,4.000000,4.000000,3.000000,4.000000,3.000000,4.000000,4.000000,4.000000
1578523402.205032,50.000000,0.000000,27.221249,-59.168945,-790.850769,-55.225235,33.250263,-28.372101,40.880367,39.520939,108.038612,-11.720384,105.425316,130.815887,85.769463,133.852768,197.674515,174.298065,88.287811,77.628571,246.194534,133.382217,58.593136,87.559448,36.123528,74.114395,19.722004,84.616791,-126.938148,80.634308,-7.445906,-79.665405,44.129726,-568.743408,8064.000000,0.000000,-1.000000,,,,0.000000,4.000000,4.000000,4.000000,4.000000,4.000000,4.000000,4.000000,4.000000,4.000000,4.000000,4.000000,4.000000,4.000000,4.000000,4.000000,4.000000,4.000000,3.000000,4.000000,4.000000,4.000000,4.000000,4.000000,4.000000,4.000000,4.000000,3.000000,4.000000,3.000000,4.000000,4.000000,4.000000
1578523402.212881,51.000000,0.000000,27.194027,-59.109779,-790.059937,-54.144367,33.729836,-28.343729,39.813847,38.968597,107.930580,-16.324047,110.448090,122.992760,84.658051,118.847122,175.938370,159.764801,87.173882,67.294533,233.127823,144.530884,58.021721,87.471886,43.779713,41.732586,-2.861821,85.044998,-121.170189,81.066498,-7.438460,-79.585739,47.675343,-567.661865,8064.000000,0.000000,-1.000000,,,,0.000000,4.000000,4.000000,4.000000,4.000000,4.000000,4.000000,4.000000,4.000000,4.000000,4.000000,4.000000,4.000000,4.000000,4.000000,4.000000,4.000000,4.000000,3.000000,4.000000,4.000000,4.000000,4.000000,4.000000,4.000000,4.000000,4.000000,3.000000,4.000000,3.000000,4.000000,4.000000,4.000000
1578523402.220630,52.000000,0.000000,27.166832,-59.563488,-789.269836,-54.603043,36.260208,-28.315386,40.286854,38.929626,107.822647,-20.923107,108.799187,117.741562,85.086212,111.548790,166.531662,170.374252,88.112350,69.278519,230.330597,144.386353,59.502159,87.384415,53.992340,27.331879,-14.653831,84.959953,-120.536194,83.036713,-7.431022,-77.454872,47.114845,-567.607056,8192.000000,0.000000,-1.000000,,,,0.000000,4.000000,4.000000,4.000000,4.000000,4.000000,4.000000,4.000000,4.000000,4.000000,4.000000,4.000000,4.000000,4.000000,4.000000,4.000000,4.000000,4.000000,3.000000,4.000000,4.000000,4.000000,4.000000,4.000000,4.000000,4.000000,4.000000,3.000000,4.000000,3.000000,4.000000,4.000000,4.000000
1578523402.228479,53.000000,0.000000,27.139666,-58.991104,-788.993408,-55.061260,37.249588,-28.287071,40.759388,37.352238,101.560974,-20.389364,97.408333,119.162277,85.513947,116.565445,195.083084,172.767990,85.972954,68.183594,231.125916,136.036835,62.006760,87.297028,52.912708,30.894291,-7.972510,83.336525,-120.928482,80.902390,-7.936411,-75.326134,46.042088,-565.500977,8192.000000,0.000000,-1.000000,,,,0.000000,4.000000,4.000000,4.000000,4.000000,4.000000,4.000000,4.000000,4.000000,4.000000,4.000000,4.000000,4.000000,4.000000,4.000000,4.000000,4.000000,4.000000,3.000000,4.000000,4.000000,4.000000,4.000000,4.000000,4.000000,4.000000,4.000000,3.000000,4.000000,3.000000,4.000000,4.000000,4.000000
1578523402.236229,54.000000,0.000000,27.112526,-58.419292,-787.178772,-54.493378,37.212337,-28.258783,40.205807,34.750782,98.382492,-24.471539,102.439133,111.350807,84.915619,112.346313,182.580307,146.441376,78.707497,56.320541,217.561447,125.644386,56.816547,87.209732,45.680309,26.248013,-9.502999,84.278831,-120.294731,75.693283,-7.415654,-75.250809,46.508869,-562.884155,8192.000000,0.000000,-1.000000,,,,0.000000,4.000000,4.000000,4.000000,4.000000,4.000000,4.000000,4.000000,4.000000,4.000000,4.000000,4.000000,4.000000,4.000000,4.000000,4.000000,4.000000,4.000000,3.000000,4.000000,4.000000,4.000000,4.000000,4.000000,4.000000,4.000000,4.000000,3.000000,4.000000,3.000000,4.000000,4.000000,4.000000
1578523402.244077,55.000000,0.000000,26.572594,-60.924976,-789.468506,-57.515808,37.687946,-28.230524,40.165600,35.228851,100.848213,-31.113735,120.798225,102.008690,84.830704,108.131409,150.090042,143.730835,75.551865,56.264221,213.754150,121.416176,54.195629,87.122520,41.019245,38.016636,-13.083240,82.656090,-122.225716,75.617592,-7.408238,-75.688377,46.462360,-563.859741,8064.000000,0.000000,-1.000000,,,,0.000000,4.000000,4.000000,4.000000,4.000000,4.000000,4.000000,4.000000,4.000000,4.000000,4.000000,4.000000,4.000000,4.000000,4.000000,4.000000,4.000000,4.000000,3.000000,4.000000,4.000000,4.000000,4.000000,4.000000,4.000000,4.000000,4.000000,3.000000,4.000000,3.000000,4.000000,4.000000,4.000000
1578523402.251827,56.000000,0.000000,26.546021,-65.992256,-795.858521,-66.176239,34.060516,-28.202293,38.586975,34.680801,91.516594,-33.133904,105.292816,101.906677,84.745872,111.100197,154.042511,154.869156,75.989136,65.438728,224.309616,120.781944,58.243999,87.035400,40.465405,60.542721,-8.454772,72.829849,-124.667595,76.054794,-7.913651,-75.099869,45.903076,-568.424133,8192.000000,0.000000,-1.000000,,,,0.000000,4.000000,4.000000,4.000000,4.000000,4.000000,4.000000,4.000000,4.000000,4.000000,4.000000,4.000000,4.000000,4.000000,4.000000,4.000000,4.000000,4.000000,3.000000,4.000000,4.000000,4.000000,4.000000,4.000000,4.000000,4.000000,4.000000,3.000000,4.000000,3.000000,4.000000,4.000000,4.000000
1578523402.259676,57.000000,0.000000,27.032295,-66.439087,-794.549866,-71.751091,29.411070,-28.174091,35.984283,32.082020,80.655846,-33.613590,77.495216,102.830414,83.635483,108.937813,180.042313,142.406586,75.400322,66.911751,225.623779,119.122696,61.262676,86.435547,39.399296,51.251411,-11.010420,67.115990,-124.030106,74.953094,-7.392917,-75.024773,45.344353,-570.419800,7936.000000,0.000000,-1.000000,,,,0.000000,4.000000,4.000000,4.000000,4.000000,4.000000,4.000000,4.000000,4.000000,4.000000,4.000000,4.000000,4.000000,4.000000,4.000000,4.000000,4.000000,4.000000,3.000000,4.000000,4.000000,4.000000,4.000000,4.000000,4.000000,4.000000,4.000000,3.000000,4.000000,3.000000,4.000000,4.000000,4.000000
1578523402.267425,58.000000,0.000000,26.492441,-63.295723,-786.575806,-65.012672,31.432940,-28.658739,35.948299,33.075577,91.857246,-30.503052,90.238235,102.214767,80.987747,104.726311,179.862274,138.674438,75.837746,65.306374,224.372513,133.362549,64.791161,86.861931,38.334259,18.892466,-30.999409,78.843750,-121.341972,77.442245,-5.334242,-74.949745,47.350288,-563.695496,8192.000000,0.000000,-1.000000,,,,0.000000,4.000000,4.000000,4.000000,4.000000,4.000000,4.000000,4.000000,4.000000,4.000000,4.000000,4.000000,4.000000,4.000000,4.000000,4.000000,4.000000,4.000000,3.000000,4.000000,4.000000,4.000000,4.000000,4.000000,4.000000,4.000000,4.000000,3.000000,4.000000,3.000000,4.000000,4.000000,4.000000
1578523402.275274,59.000000,0.000000,26.465950,-62.206787,-783.225159,-53.665607,36.529713,-28.117260,36.425171,35.093784,106.637184,-20.728960,110.147995,106.727936,80.393936,109.236969,182.246521,153.920380,78.838829,68.830811,228.250702,155.280472,68.828934,86.775070,42.398487,12.719728,-39.686359,92.611053,-120.194992,79.416084,-3.790446,-74.874794,51.405502,-551.849792,8064.000000,0.000000,-1.000000,,,,0.000000,4.000000,4.000000,4.000000,4.000000,4.000000,4.000000,4.000000,4.000000,4.000000,4.000000,4.000000,4.000000,4.000000,4.000000,4.000000,4.000000,4.000000,3.000000,4.000000,4.000000,4.000000,4.000000,4.000000,4.000000,4.000000,4.000000,3.000000,4.000000,3.000000,4.000000,4.000000,4.000000
1578523402.283023,60.000000,0.000000,29.003586,-62.657398,-780.903442,-50.022202,37.518826,-28.089142,35.875927,35.058689,106.530540,-17.118486,111.063484,111.749413,80.826363,113.230301,190.269394,159.920303,79.272812,70.300446,226.483994,148.971344,65.170357,84.637009,50.048397,45.527519,-11.441544,95.595367,-120.074799,75.234108,-3.786655,-74.799919,54.431023,-547.195374,8064.000000,0.000000,-1.000000,,,,0.000000,4.000000,4.000000,4.000000,4.000000,4.000000,4.000000,4.000000,4.000000,4.000000,4.000000,4.000000,4.000000,4.000000,4.000000,4.000000,4.000000,4.000000,3.000000,4.000000,4.000000,4.000000,4.000000,4.000000,4.000000,4.000000,4.000000,3.000000,4.000000,3.000000,4.000000,4.000000,4.000000
1578523402.290872,61.000000,0.000000,30.513044,-62.594742,-776.019958,-50.997818,36.455666,-29.086693,35.840050,34.510811,109.500938,-21.716753,129.926788,108.560738,80.745537,111.065788,168.540665,165.401413,80.219177,69.717323,228.821609,119.078781,62.028267,82.501091,49.998348,76.764046,21.390409,96.012596,-119.954720,72.081947,-3.782869,-74.725121,55.915051,-548.186646,8064.000000,0.000000,-1.000000,,,,0.000000,4.000000,4.000000,4.000000,4.000000,4.000000,4.000000,4.000000,4.000000,4.000000,4.000000,4.000000,4.000000,4.000000,4.000000,4.000000,4.000000,4.000000,3.000000,4.000000,4.000000,4.000000,4.000000,4.000000,4.000000,4.000000,4.000000,3.000000,4.000000,3.000000,4.000000,4.000000,4.000000
1578523402.298621,62.000000,0.000000,30.482531,-62.019329,-773.192688,-50.434002,36.932030,-27.006325,35.804211,34.989120,119.647842,-18.618114,144.668655,104.862434,80.151970,111.980362,149.910583,174.979599,84.754341,69.134789,238.336380,106.652008,69.658546,82.931412,44.820145,70.533432,23.420301,98.480682,-119.834770,71.497047,-3.779086,-74.650398,56.884777,-546.612793,8192.000000,0.000000,-1.000000,,,,0.000000,4.000000,4.000000,4.000000,4.000000,4.000000,4.000000,4.000000,4.000000,4.000000,4.000000,4.000000,4.000000,4.000000,4.000000,4.000000,4.000000,4.000000,3.000000,4.000000,4.000000,4.000000,4.000000,4.000000,4.000000,4.000000,4.000000,3.000000,4.000000,3.000000,4.000000,4.000000,4.000000
1578523402.306270,63.000000,0.000000,29.939228,-61.957310,-773.445129,-49.870747,36.895096,-22.363934,35.768406,34.954132,117.476913,-10.394367,119.908600,113.475517,80.584641,116.996582,182.581192,171.214874,86.720871,69.578468,232.969833,127.058182,75.229912,84.899765,42.724041,44.821877,-2.756964,98.895027,-119.714935,71.425552,-3.775307,-74.575745,57.340714,-546.578979,8192.000000,0.000000,-1.000000,,,,0.000000,4.000000,4.000000,4.000000,4.000000,4.000000,4.000000,4.000000,4.000000,4.000000,4.000000,4.000000,4.000000,4.000000,4.000000,4.000000,4.000000,4.000000,3.000000,4.000000,4.000000,4.000000,4.000000,4.000000,4.000000,4.000000,4.000000,3.000000,4.000000,3.000000,4.000000,4.000000,4.000000
1578523402.314019,64.000000,0.000000,30.422110,-61.895351,-772.671692,-49.308056,36.858200,-20.290289,36.245457,34.919178,109.667130,-10.383973,109.532280,126.182556,80.504051,119.956512,215.219116,165.915451,87.146973,69.508896,227.095840,158.725998,77.205963,86.353325,42.168499,28.366796,-21.728567,98.283310,-119.595215,73.918228,-3.771532,-74.501167,57.283371,-552.699097,0.000000,208.000000,-1.000000,,,,0.000000,4.000000,4.000000,4.000000,4.000000,4.000000,4.000000,4.000000,4.000000,4.000000,4.000000,4.000000,4.000000,4.000000,4.000000,4.000000,4.000000,4.000000,3.000000,4.000000,4.000000,4.000000,4.000000,4.000000,4.000000,4.000000,4.000000,3.000000,4.000000,3.000000,4.000000,4.000000,4.000000
1578523402.321668,65.000000,0.000000,30.904509,-61.833454,-770.873352,-49.771568,37.334164,-20.269999,36.722034,35.909901,109.044647,-12.424870,128.909927,123.492271,80.936371,120.349373,204.234665,165.749542,88.085464,69.439384,234.048233,164.208298,78.154396,87.292610,43.664791,31.928173,-19.142735,98.185028,-119.475624,75.895592,-3.254940,-73.913849,57.226089,-555.736145,0.000000,176.000000,-1.000000,,,,0.000000,4.000000,4.000000,4.000000,4.000000,4.000000,4.000000,4.000000,4.000000,4.000000,4.000000,4.000000,4.000000,4.000000,4.000000,4.000000,4.000000,4.000000,3.000000,4.000000,4.000000,4.000000,4.000000,4.000000,4.000000,4.000000,4.000000,3.000000,4.000000,3.000000,4.000000,4.000000,4.000000
1578523402.329417,66.000000,0.000000,30.873604,-61.771622,-769.589661,-51.773079,36.784008,-20.762548,36.172489,34.335529,109.448418,-13.950908,126.729736,111.573906,80.342613,118.690567,171.722748,158.404297,81.330711,68.857124,230.224442,132.762039,67.307014,85.154037,44.133945,48.819321,-5.790259,95.522736,-119.356148,68.640205,-3.251684,-74.352753,56.143223,-554.154785,0.000000,165.000000,-1.000000,,,,0.000000,4.000000,4.000000,4.000000,4.000000,4.000000,4.000000,4.000000,4.000000,4.000000,4.000000,4.000000,4.000000,4.000000,4.000000,4.000000,4.000000,4.000000,3.000000,4.000000,4.000000,4.000000,4.000000,4.000000,4.000000,4.000000,4.000000,3.000000,4.000000,3.000000,4.000000,4.000000,4.000000
1578523402.337066,67.000000,0.000000,27.252987,-62.222672,-767.281616,-48.644382,36.234406,-20.741785,35.623497,33.788372,109.338974,-14.962598,109.679924,115.052078,79.749451,118.059052,168.986923,151.579239,75.608360,69.301086,218.199341,116.731834,58.521759,82.504784,33.833401,51.334606,-0.656264,94.401573,-118.723969,64.981827,-4.274074,-75.816864,57.112720,-551.549316,0.000000,207.000000,-1.000000,,,,0.000000,4.000000,4.000000,4.000000,4.000000,4.000000,4.000000,4.000000,4.000000,4.000000,4.000000,4.000000,4.000000,4.000000,4.000000,4.000000,4.000000,4.000000,3.000000,4.000000,4.000000,4.000000,4.000000,4.000000,4.000000,4.000000,4.000000,3.000000,4.000000,3.000000,4.000000,4.000000,4.000000
1578523402.344816,68.000000,0.000000,26.712914,-61.647629,-764.975891,-51.672661,37.736633,-20.208223,37.126335,35.805866,108.203995,-10.845071,103.416405,119.552414,81.720985,120.505096,180.612808,152.966110,78.609673,69.231789,217.468323,144.820236,68.719650,85.499199,27.132902,33.334553,-12.450480,92.255890,-116.553963,75.173256,-3.756979,-73.176949,56.029964,-549.972107,0.000000,206.000000,-1.000000,,,,0.000000,4.000000,4.000000,4.000000,4.000000,4.000000,4.000000,4.000000,4.000000,4.000000,4.000000,4.000000,4.000000,4.000000,4.000000,4.000000,4.000000,4.000000,3.000000,4.000000,4.000000,4.000000,4.000000,4.000000,4.000000,4.000000,4.000000,3.000000,4.000000,3.000000,4.000000,4.000000,4.000000
1578523402.352465,69.000000,0.000000,27.711842,-61.585979,-773.441650,-71.108170,35.647614,-22.239298,32.473824,29.616213,98.352196,-19.552176,98.697601,99.945679,78.049522,110.128181,160.432190,148.710587,75.454140,67.111275,211.609833,155.957458,67.112465,85.413696,41.464745,22.019167,-23.720079,82.932861,-114.386131,78.687820,-4.266043,-74.129410,47.255989,-558.140137,0.000000,209.000000,-1.000000,,,,0.000000,4.000000,4.000000,4.000000,4.000000,4.000000,4.000000,4.000000,4.000000,4.000000,4.000000,4.000000,4.000000,4.000000,4.000000,4.000000,4.000000,4.000000,3.000000,4.000000,4.000000,4.000000,4.000000,4.000000,4.000000,4.000000,4.000000,3.000000,4.000000,3.000000,4.000000,4.000000,4.000000
1578523402.360214,70.000000,0.000000,19.991821,-63.575676,-786.514404,-83.344749,28.945299,-27.345263,20.646479,12.663521,86.458977,-45.686470,97.573265,75.230347,66.689415,84.889847,131.040985,140.869568,60.506889,64.992882,202.680267,123.493813,41.404327,73.533417,48.089947,30.715097,-19.080975,74.131981,-117.348663,61.686058,-10.928444,-84.311691,40.542065,-571.428101,0.000000,212.000000,-1.000000,,,,0.000000,4.000000,4.000000,4.000000,4.000000,4.000000,4.000000,4.000000,4.000000,4.000000,4.000000,4.000000,4.000000,4.000000,4.000000,4.000000,4.000000,4.000000,3.000000,4.000000,4.000000,4.000000,4.000000,4.000000,4.000000,4.000000,4.000000,3.000000,4.000000,3.000000,4.000000,4.000000,4.000000
1578523402.367863,71.000000,0.000000,9.202599,-65.050560,-781.112488,-73.517815,25.326611,-29.369200,17.548910,8.548293,85.859695,-47.692062,99.526970,78.232040,59.443241,74.035728,140.653534,141.754333,54.805359,64.415062,209.657074,91.062630,32.644974,60.639370,21.888010,36.325409,-15.472151,73.032211,-125.436447,44.701294,-20.148285,-87.817123,41.527164,-569.831055,0.000000,187.000000,-1.000000,,,,0.000000,4.000000,4.000000,4.000000,4.000000,4.000000,4.000000,4.000000,4.000000,4.000000,4.000000,4.000000,4.000000,4.000000,4.000000,4.000000,4.000000,4.000000,3.000000,4.000000,4.000000,4.000000,4.000000,4.000000,4.000000,4.000000,4.000000,3.000000,4.000000,3.000000,4.000000,4.000000,4.000000
1578523402.375612,72.000000,0.000000,7.142114,-62.934231,-761.356995,-63.700710,27.865387,-24.211626,24.198027,25.462822,93.466141,-22.516167,94.812057,100.717911,60.409439,90.884773,173.333389,146.227966,59.365936,65.376289,215.088440,107.894638,48.509766,57.501804,0.840480,26.545492,-26.225910,76.548920,-125.823830,45.169415,-17.564034,-77.985718,47.639484,-557.466370,0.000000,198.000000,-1.000000,,,,0.000000,4.000000,4.000000,4.000000,4.000000,4.000000,4.000000,4.000000,4.000000,4.000000,4.000000,4.000000,4.000000,4.000000,4.000000,4.000000,4.000000,4.000000,3.000000,4.000000,4.000000,4.000000,4.000000,4.000000,4.000000,4.000000,4.000000,3.000000,4.000000,3.000000,4.000000,4.000000,4.000000
1578523402.383261,73.000000,0.000000,8.673433,-61.332832,-753.929016,-64.662651,29.888803,-20.084850,29.302034,39.283512,100.039345,-11.724421,101.383911,113.437706,62.400311,106.178497,188.544678,144.030457,60.332211,65.310913,204.104126,140.607254,57.179203,62.572510,13.147332,20.365101,-30.815067,83.651863,-117.492874,55.380653,-5.751597,-72.266701,51.181587,-550.755066,0.000000,179.000000,-1.000000,,,,0.000000,4.000000,4.000000,4.000000,4.000000,4.000000,4.000000,4.000000,4.000000,4.000000,4.000000,4.000000,4.000000,4.000000,4.000000,4.000000,4.000000,4.000000,3.000000,4.000000,4.000000,4.000000,4.000000,4.000000,4.000000,4.000000,4.000000,3.000000,4.000000,3.000000,4.000000,4.000000,4.000000
1578523402.391110,74.000000,0.000000,8.151939,-61.784321,-758.303284,-65.623627,28.320452,-21.090406,28.247091,36.680126,104.041870,-17.353722,117.692787,109.221703,59.773808,105.559502,164.766388,144.399246,62.323162,64.219963,202.361557,153.799988,59.173306,71.740707,33.647007,25.985762,-22.066305,86.645134,-113.272820,61.991940,-4.207385,-74.758537,52.668865,-551.742737,0.000000,169.000000,-1.000000,,,,0.000000,4.000000,4.000000,4.000000,4.000000,4.000000,4.000000,4.000000,4.000000,4.000000,4.000000,4.000000,4.000000,4.000000,4.000000,4.000000,4.000000,4.000000,3.000000,4.000000,4.000000,4.000000,4.000000,4.000000,4.000000,4.000000,4.000000,3.000000,4.000000,3.000000,4.000000,4.000000,4.000000
1578523402.398859,75.000000,0.000000,7.630967,-60.696896,-757.544983,-64.019539,29.317774,-21.582136,27.193203,33.053703,104.963463,-17.849188,115.523811,100.907356,60.739677,107.505226,137.934952,157.075363,70.978790,66.207024,215.492538,150.056442,65.780800,78.848450,39.767204,34.164902,-14.864751,85.532845,-115.723648,64.494049,-7.280100,-73.658142,53.129017,-552.216614,0.000000,199.000000,-1.000000,,,,0.000000,4.000000,4.000000,4.000000,4.000000,4.000000,4.000000,4.000000,4.000000,4.000000,4.000000,4.000000,4.000000,4.000000,4.000000,4.000000,4.000000,4.000000,3.000000,4.000000,4.000000,4.000000,4.000000,4.000000,4.000000,4.000000,4.000000,3.000000,4.000000,3.000000,4.000000,4.000000,4.000000
1578523402.406608,76.000000,0.000000,8.648977,-58.072098,-749.095093,-59.340137,35.955120,-18.483631,31.268574,36.097572,107.422607,-16.805698,109.254440,105.421829,71.448166,117.654129,147.540604,168.200333,80.138580,71.781845,223.994980,152.470490,69.304764,78.769608,40.240257,39.258942,-13.824245,91.088341,-113.556641,69.044945,-1.118974,-69.994736,56.152813,-544.484924,0.000000,202.000000,-1.000000,,,,0.000000,4.000000,4.000000,4.000000,4.000000,4.000000,4.000000,4.000000,4.000000,4.000000,4.000000,4.000000,4.000000,4.000000,4.000000,4.000000,4.000000,4.000000,3.000000,4.000000,4.000000,4.000000,4.000000,4.000000,4.000000,4.000000,4.000000,3.000000,4.000000,3.000000,4.000000,4.000000,4.000000
1578523402.414258,77.000000,0.000000,8.640328,-56.988384,-744.243469,-57.229515,43.611473,-13.336942,37.903973,38.112755,110.392105,-12.173508,114.786209,114.034363,83.171593,124.715965,170.982819,163.929581,84.161003,70.684418,223.258179,150.779556,68.209816,78.178017,44.302582,38.706863,-15.348883,97.151093,-109.853340,72.565643,4.523171,-69.411926,57.635120,-535.222473,0.000000,177.000000,-1.000000,,,,0.000000,4.000000,4.000000,4.000000,4.000000,4.000000,4.000000,4.000000,4.000000,4.000000,4.000000,4.000000,4.000000,4.000000,4.000000,4.000000,4.000000,4.000000,3.000000,4.000000,4.000000,4.000000,4.000000,4.000000,4.000000,4.000000,4.000000,3.000000,4.000000,3.000000,4.000000,4.000000,4.000000
1578523402.422107,78.000000,0.000000,9.144508,-57.444214,-750.165894,-62.813313,44.593506,-12.810784,40.430172,35.510540,102.589409,-10.110052,111.594505,109.817764,84.114059,123.052788,164.657990,156.586151,79.461456,62.921429,217.906708,131.654419,67.628784,79.638298,44.771099,25.847645,-25.077124,90.900101,-114.871696,71.980255,-0.609558,-69.855331,53.474922,-540.328308,0.000000,187.000000,-1.000000,,,,0.000000,4.000000,4.000000,4.000000,4.000000,4.000000,4.000000,4.000000,4.000000,4.000000,4.000000,4.000000,4.000000,4.000000,4.000000,4.000000,4.000000,4.000000,3.000000,4.000000,4.000000,4.000000,4.000000,4.000000,4.000000,4.000000,4.000000,3.000000,4.000000,3.000000,4.000000,4.000000,4.000000
1578523402.429856,79.000000,0.000000,8.622543,-57.386772,-755.569580,-64.288963,37.882244,-13.310795,39.364101,33.423748,91.717583,-24.458916,97.636757,105.092560,79.414558,117.288704,154.236923,154.891113,71.689690,60.294403,212.560593,128.445847,68.073982,78.533020,35.495560,11.462822,-32.744354,83.116890,-121.423492,71.395454,-4.711512,-69.785477,50.857346,-552.095642,0.000000,202.000000,-1.000000,,,,0.000000,4.000000,4.000000,4.000000,4.000000,4.000000,4.000000,4.000000,4.000000,4.000000,4.000000,4.000000,4.000000,4.000000,4.000000,4.000000,4.000000,4.000000,3.000000,4.000000,4.000000,4.000000,4.000000,4.000000,4.000000,4.000000,4.000000,3.000000,4.000000,3.000000,4.000000,4.000000,4.000000
1578523402.437605,80.000000,0.000000,9.126741,-57.329384,-753.275513,-66.275955,32.716156,-13.297483,40.350376,34.415966,88.548943,-33.152405,89.333992,113.192596,79.847969,115.632957,173.569855,151.146469,71.105179,61.259750,211.322388,151.394318,68.005905,77.941666,28.280577,16.579565,-29.121866,81.495316,-121.814888,71.836876,-3.681159,-69.715691,50.293667,-556.671753,0.000000,199.000000,-1.000000,,,,0.000000,4.000000,4.000000,4.000000,4.000000,4.000000,4.000000,4.000000,4.000000,4.000000,4.000000,4.000000,4.000000,4.000000,4.000000,4.000000,4.000000,4.000000,3.000000,4.000000,4.000000,4.000000,4.000000,4.000000,4.000000,4.000000,4.000000,3.000000,4.000000,3.000000,4.000000,4.000000,4.000000
1578523402.445254,81.000000,0.000000,9.117615,-57.272057,-755.086365,-83.132751,31.144979,-14.822648,37.745922,33.355907,85.896294,-25.939766,92.321579,105.899918,80.793762,113.466042,173.396286,150.995331,74.623817,61.198490,210.598251,144.063431,66.912254,78.376541,32.354858,28.870678,-27.554283,77.311256,-120.667435,70.226578,-3.677478,-69.645973,47.166451,-560.217651,0.000000,186.000000,-1.000000,,,,0.000000,4.000000,4.000000,4.000000,4.000000,4.000000,4.000000,4.000000,4.000000,4.000000,4.000000,4.000000,4.000000,4.000000,4.000000,4.000000,4.000000,4.000000,3.000000,4.000000,4.000000,4.000000,4.000000,4.000000,4.000000,4.000000,4.000000,3.000000,4.000000,3.000000,4.000000,4.000000,4.000000
1578523402.453103,82.000000,0.000000,5.518753,-57.214783,-749.203064,-79.972702,33.165115,-18.910389,30.528690,32.296913,86.323219,-30.016392,100.434387,79.640167,74.559120,96.942322,140.915207,150.331512,68.395348,60.624474,209.874832,112.637321,62.229961,75.734062,33.348145,34.995651,-26.501087,75.695480,-121.059586,67.079430,-4.186621,-69.576332,47.119282,-555.554871,0.000000,162.000000,-1.000000,,,,0.000000,4.000000,4.000000,4.000000,4.000000,4.000000,4.000000,4.000000,4.000000,4.000000,4.000000,4.000000,4.000000,4.000000,4.000000,4.000000,4.000000,4.000000,3.000000,4.000000,4.000000,4.000000,4.000000,4.000000,4.000000,4.000000,4.000000,4.000000,4.000000,4.000000,4.000000,4.000000,4.000000
1578523402.460852,83.000000,0.000000,1.410670,-57.157570,-719.223083,-47.072212,39.285797,-20.942760,26.908419,38.418461,97.518944,-39.217144,91.616005,75.457962,64.228149,75.819733,140.774292,135.822205,56.532082,60.051029,210.177780,130.473404,59.090809,67.453201,26.135311,32.909374,-18.782278,73.568504,-121.451347,61.371326,-4.182435,-69.506752,45.020882,-530.896790,0.000000,154.000000,-1.000000,,,,0.000000,4.000000,4.000000,4.000000,4.000000,4.000000,4.000000,4.000000,4.000000,4.000000,4.000000,4.000000,4.000000,4.000000,4.000000,4.000000,4.000000,4.000000,3.000000,4.000000,4.000000,4.000000,4.000000,4.000000,4.000000,4.000000,4.000000,4.000000,4.000000,4.000000,4.000000,4.000000,4.000000
1578523402.468701,84.000000,0.000000,0.896439,-57.100410,-700.042297,-17.281551,42.836254,-20.921818,26.368689,40.944145,104.088097,-32.511261,74.601311,78.459427,58.522896,70.102890,155.505310,123.891510,53.911446,57.939693,203.813751,163.163437,58.006077,59.693439,23.545073,10.825184,-29.019907,58.110317,-123.893997,54.643288,-3.665432,-69.437248,25.488682,-516.519714,0.000000,209.000000,-1.000000,,,,0.000000,4.000000,4.000000,4.000000,4.000000,4.000000,4.000000,4.000000,4.000000,4.000000,4.000000,4.000000,4.000000,4.000000,4.000000,4.000000,4.000000,4.000000,3.000000,4.000000,4.000000,4.000000,4.000000,4.000000,4.000000,4.000000,4.000000,4.000000,4.000000,4.000000,4.000000,4.000000,4.000000
1578523402.476450,85.000000,0.000000,1.408363,-57.043308,-715.752563,-15.725808,41.767776,-20.900896,22.239758,33.723713,101.932724,-28.376184,85.808762,61.457893,60.515656,70.545609,127.657494,135.049667,56.934456,56.343292,195.404816,136.333618,54.358326,58.608105,24.034348,-15.852308,-53.606270,42.667591,-128.898300,50.486080,-3.661767,-69.367805,-1.203474,-527.798096,0.000000,191.000000,-1.000000,,,,0.000000,4.000000,4.000000,4.000000,4.000000,4.000000,4.000000,4.000000,4.000000,4.000000,4.000000,4.000000,4.000000,4.000000,4.000000,4.000000,4.000000,4.000000,3.000000,4.000000,4.000000,4.000000,4.000000,4.000000,4.000000,4.000000,4.000000,4.000000,4.000000,4.000000,4.000000,4.000000,4.000000
1578523402.484299,86.000000,0.000000,1.406955,-56.986267,-722.729065,0.187353,46.854214,-20.879995,28.371363,39.331017,111.061562,-25.783707,112.902435,69.601563,68.660271,79.193008,121.375992,148.760773,57.390343,56.286949,201.363251,107.992149,52.765507,59.062321,17.856468,-0.964661,-41.244972,40.573643,-132.359146,48.384312,-3.658105,-69.298439,-7.868937,-532.911316,0.000000,206.000000,-1.000000,,,,0.000000,4.000000,4.000000,4.000000,4.000000,4.000000,4.000000,4.000000,4.000000,4.000000,4.000000,4.000000,4.000000,4.000000,4.000000,4.000000,4.000000,4.000000,3.000000,4.000000,4.000000,4.000000,4.000000,4.000000,4.000000,4.000000,4.000000,4.000000,4.000000,4.000000,4.000000,4.000000,4.000000
1578523402.492048,87.000000,0.000000,0.892727,-56.929279,-700.467896,29.930756,59.627872,-20.859116,48.342991,62.881428,128.386398,-5.245101,120.481842,102.352478,75.258278,107.831764,154.075134,154.765854,62.461159,60.333229,211.931122,128.909805,58.866589,62.080181,13.223227,31.856817,-8.383215,40.533070,-131.713974,47.823109,-3.654447,-69.229141,-4.784145,-522.634827,0.000000,224.000000,-1.000000,,,,0.000000,4.000000,4.000000,4.000000,4.000000,4.000000,4.000000,4.000000,4.000000,4.000000,4.000000,4.000000,4.000000,4.000000,4.000000,4.000000,4.000000,4.000000,3.000000,4.000000,4.000000,4.000000,4.000000,4.000000,4.000000,4.000000,4.000000,4.000000,4.000000,4.000000,4.000000,4.000000,4.000000
1578523402.499897,88.000000,0.000000,1.404655,-56.872353,-691.562317,39.644413,65.722092,-20.325436,61.115162,75.126236,133.899033,13.221682,119.848541,128.403961,75.695839,131.826492,186.741562,161.790588,77.270493,63.349815,213.770477,144.165497,65.987206,71.761688,14.748466,37.465984,-3.246626,45.620743,-129.018158,53.416309,-3.650792,-69.159912,-7.856284,-520.573730,0.000000,101.000000,-1.000000,,,,0.000000,4.000000,4.000000,4.000000,4.000000,4.000000,4.000000,4.000000,4.000000,4.000000,4.000000,4.000000,4.000000,4.000000,4.000000,4.000000,4.000000,4.000000,2.000000,4.000000,4.000000,4.000000,4.000000,4.000000,4.000000,4.000000,4.000000,4.000000,4.000000,4.000000,4.000000,4.000000,4.000000
1578523402.507646,89.000000,0.000000,1.403251,-56.815479,-706.255371,36.015026,65.143547,-20.305111,59.002766,68.897270,132.226669,12.182819,123.831253,124.685822,74.594498,130.669037,162.965073,164.705719,85.911171,63.799290,219.710541,139.405960,67.459679,80.920700,19.861921,17.428520,-19.140816,59.934093,-127.350677,64.132126,-3.647141,-69.090752,-5.284325,-525.694153,0.000000,176.000000,-1.000000,,,,0.000000,4.000000,4.000000,4.000000,4.000000,4.000000,4.000000,4.000000,4.000000,4.000000,4.000000,4.000000,4.000000,4.000000,4.000000,4.000000,4.000000,4.000000,2.000000,4.000000,4.000000,4.000000,4.000000,4.000000,4.000000,4.000000,4.000000,4.000000,4.000000,4.000000,4.000000,4.000000,4.000000
1578523402.515495,90.000000,0.000000,1.401847,-56.758663,-711.702942,35.466190,64.565582,-21.310446,57.405300,65.751450,132.094452,8.580893,127.297165,121.997032,75.545547,125.922974,141.776474,166.592285,85.825256,69.376511,227.695969,139.779373,66.879402,82.378235,29.585649,14.846989,-18.608854,61.412624,-127.223328,68.170555,-3.643494,-69.021660,3.951729,-524.655640,0.000000,173.000000,-1.000000,,,,0.000000,4.000000,4.000000,4.000000,4.000000,4.000000,4.000000,4.000000,4.000000,4.000000,4.000000,4.000000,4.000000,4.000000,4.000000,4.000000,4.000000,4.000000,2.000000,4.000000,4.000000,4.000000,4.000000,4.000000,4.000000,4.000000,4.000000,4.000000,4.000000,4.000000,4.000000,4.000000,4.000000
1578523402.523244,91.000000,0.000000,1.400445,-56.701904,-710.478455,33.892265,61.936916,-20.776316,58.886356,67.736977,129.398254,5.495389,127.169868,111.618622,75.470001,123.745773,143.173157,167.964157,86.252251,73.922523,219.263138,131.947281,66.812523,78.706116,31.094526,14.319321,-28.846655,48.017876,-127.096100,65.025459,-3.639851,-68.952644,0.358033,-527.207886,0.000000,199.000000,-1.000000,,,,0.000000,4.000000,4.000000,4.000000,4.000000,4.000000,4.000000,4.000000,4.000000,4.000000,4.000000,4.000000,4.000000,4.000000,4.000000,4.000000,4.000000,4.000000,2.000000,4.000000,4.000000,4.000000,4.000000,4.000000,4.000000,4.000000,4.000000,4.000000,4.000000,4.000000,4.000000,4.000000,4.000000
1578523402.531093,92.000000,0.000000,1.399045,-56.645203,-717.973083,32.319908,57.259594,-20.242718,50.622341,62.541035,124.653465,-4.253696,111.145264,94.583931,73.343246,110.801514,145.081268,150.360306,80.524979,61.540909,206.223373,130.789688,66.745712,74.524849,20.807020,1.997309,-57.022938,43.867294,-126.969009,62.909157,-3.636211,-68.883690,-8.873094,-536.937134,0.000000,193.000000,-1.000000,,,,0.000000,4.000000,4.000000,4.000000,4.000000,4.000000,4.000000,4.000000,4.000000,4.000000,4.000000,4.000000,4.000000,4.000000,4.000000,4.000000,4.000000,4.000000,2.000000,4.000000,3.000000,4.000000,4.000000,4.000000,4.000000,4.000000,4.000000,4.000000,4.000000,4.000000,4.000000,4.000000,4.000000
1578523402.538842,93.000000,0.000000,0.884825,-56.588558,-724.434570,28.185026,56.176693,-21.760937,37.751205,55.299007,121.964714,-12.454571,91.034119,86.284218,71.218628,96.844559,134.679779,130.209946,64.547012,48.658855,203.453033,146.043518,66.166145,72.911858,20.786213,6.097876,-55.427452,46.387531,-126.842041,62.846245,-3.632575,-68.814804,-5.787298,-539.477112,0.000000,144.000000,-1.000000,,,,0.000000,4.000000,4.000000,4.000000,4.000000,4.000000,4.000000,4.000000,4.000000,4.000000,4.000000,4.000000,4.000000,4.000000,4.000000,4.000000,4.000000,4.000000,2.000000,4.000000,3.000000,4.000000,4.000000,4.000000,4.000000,4.000000,4.000000,4.000000,4.000000,4.000000,4.000000,4.000000,4.000000
1578523402.546691,94.000000,0.000000,1.396761,-56.531971,-721.146057,16.361969,57.146160,-19.175074,34.123711,53.705246,120.304283,-9.878014,97.609756,81.069725,70.634583,95.722069,115.057915,136.746399,57.302982,50.148655,203.762405,139.743622,64.561516,72.838951,29.483376,21.476393,-26.654078,44.802681,-126.715195,59.706478,-3.628942,-68.745987,-2.191767,-534.322205,0.000000,156.000000,-1.000000,,,,0.000000,4.000000,4.000000,4.000000,4.000000,4.000000,4.000000,4.000000,4.000000,4.000000,4.000000,4.000000,4.000000,4.000000,4.000000,4.000000,4.000000,4.000000,2.000000,4.000000,3.000000,4.000000,4.000000,4.000000,4.000000,4.000000,4.000000,4.000000,4.000000,4.000000,4.000000,4.000000,4.000000
1578523402.554440,95.000000,0.000000,1.395364,-56.475437,-717.347961,7.627658,56.576191,-11.976412,36.653690,55.190002,119.671158,-5.765572,109.307014,78.937378,70.563950,97.677635,110.840294,148.917343,57.758499,53.688251,209.199677,121.142349,63.984135,73.791748,25.351328,22.480558,-18.935116,44.757877,-126.588478,55.544205,-3.625313,-68.677246,-5.779318,-533.275085,0.000000,202.000000,-1.000000,,,,0.000000,4.000000,4.000000,4.000000,4.000000,4.000000,4.000000,4.000000,4.000000,4.000000,4.000000,4.000000,4.000000,4.000000,4.000000,4.000000,4.000000,4.000000,2.000000,4.000000,3.000000,4.000000,4.000000,4.000000,4.000000,4.000000,4.000000,4.000000,4.000000,4.000000,4.000000,4.000000,4.000000
1578523402.562089,96.000000,0.000000,0.368328,-56.418961,-717.656250,8.645672,57.032436,-8.374691,38.155499,54.621994,120.064308,-11.400831,107.146423,86.550743,70.493385,97.579956,127.139709,147.742783,58.213562,56.198666,218.734055,122.046844,61.356049,72.179497,16.608028,24.509359,-20.454641,50.354145,-126.461891,52.924561,-3.621688,-68.095749,-1.158155,-533.254639,8192.000000,0.000000,-1.000000,,,,0.000000,4.000000,4.000000,4.000000,4.000000,4.000000,4.000000,4.000000,4.000000,4.000000,4.000000,4.000000,4.000000,4.000000,4.000000,4.000000,4.000000,4.000000,2.000000,4.000000,3.000000,4.000000,4.000000,4.000000,4.000000,4.000000,4.000000,4.000000,4.000000,4.000000,4.000000,4.000000,4.000000
1578523402.569838,97.000000,0.000000,2.932062,-56.362541,-716.938599,9.149846,56.975403,-9.391957,38.117344,54.567371,119.431427,-16.517635,126.526459,92.618042,72.987000,99.533653,132.140778,151.184784,63.796371,61.783493,222.617889,128.591461,61.807510,72.620140,16.078600,34.741261,-7.100853,53.380714,-126.335434,60.051121,-3.618066,-68.540474,9.099414,-528.618835,8192.000000,0.000000,-1.000000,,,,0.000000,4.000000,4.000000,4.000000,4.000000,4.000000,4.000000,4.000000,4.000000,4.000000,4.000000,4.000000,4.000000,4.000000,4.000000,4.000000,4.000000,4.000000,2.000000,4.000000,3.000000,4.000000,4.000000,4.000000,4.000000,4.000000,4.000000,4.000000,4.000000,4.000000,4.000000,4.000000,4.000000
1578523402.577488,98.000000,0.000000,9.595797,-56.306179,-714.683228,6.576594,56.405609,-8.869745,33.976662,55.025623,119.824814,-11.372913,148.451218,90.986961,74.965294,100.459763,125.854790,161.802826,72.450523,63.772991,222.395279,142.821854,74.566216,80.239822,19.652266,28.552673,-5.042470,52.301693,-126.209091,72.811584,-3.614448,-68.471931,10.628776,-523.987610,8192.000000,0.000000,-1.000000,,,,0.000000,4.000000,4.000000,4.000000,4.000000,4.000000,4.000000,4.000000,4.000000,4.000000,4.000000,4.000000,4.000000,4.000000,4.000000,4.000000,4.000000,4.000000,2.000000,4.000000,3.000000,4.000000,4.000000,4.000000,4.000000,4.000000,4.000000,4.000000,4.000000,4.000000,4.000000,4.000000,4.000000
1578523402.585237,99.000000,0.000000,12.150304,-56.762695,-714.994202,5.544376,57.374844,-10.399337,26.250378,52.919315,119.704987,-6.233335,117.020714,84.229309,73.351868,100.359306,125.216110,164.717957,74.429359,64.222038,221.147232,167.807236,88.337807,86.826248,32.965946,11.601044,-20.934864,52.249390,-125.570068,76.841339,-3.610834,-67.377815,9.079685,-523.976440,8192.000000,0.000000,-1.000000,,,,0.000000,4.000000,4.000000,4.000000,4.000000,4.000000,4.000000,4.000000,4.000000,4.000000,4.000000,4.000000,4.000000,4.000000,4.000000,4.000000,4.000000,4.000000,2.000000,4.000000,3.000000,4.000000,4.000000,4.000000,4.000000,4.000000,4.000000,4.000000,4.000000,4.000000,4.000000,4.000000,4.000000
1578523402.592886,100.000000,0.000000,9.061231,-56.193111,-716.843262,2.461909,55.779007,-16.029963,27.762589,51.327934,115.482719,-9.816845,84.596001,77.478409,74.304153,99.746124,124.065254,161.989136,72.816467,66.721916,215.285065,163.536865,81.069977,81.098396,48.317596,13.640724,-27.067776,52.709961,-126.982956,69.072189,-3.607223,-70.900185,10.096247,-526.529419,8192.000000,0.000000,-1.000000,,,,0.000000,4.000000,4.000000,4.000000,4.000000,4.000000,4.000000,4.000000,4.000000,4.000000,4.000000,4.000000,4.000000,4.000000,4.000000,4.000000,4.000000,4.000000,2.000000,4.000000,3.000000,4.000000,4.000000,4.000000,4.000000,4.000000,4.000000,4.000000,4.000000,4.000000,4.000000,4.000000,4.000000
1578523402.600635,101.000000,0.000000,8.026528,-56.136917,-716.639282,-5.232861,51.107845,-17.039574,40.042519,51.276608,112.290314,-9.294208,96.819092,85.606064,81.409340,102.210480,133.171967,162.339966,73.769287,67.680840,210.454391,136.193832,69.706856,75.376274,42.628254,23.883493,-22.425323,52.144432,-129.420074,62.849270,-3.603616,-77.495949,9.060510,-529.592651,8192.000000,0.000000,-1.000000,,,,0.000000,4.000000,4.000000,4.000000,4.000000,4.000000,4.000000,4.000000,4.000000,4.000000,4.000000,4.000000,4.000000,4.000000,4.000000,4.000000,4.000000,4.000000,2.000000,4.000000,3.000000,4.000000,4.000000,4.000000,4.000000,4.000000,4.000000,4.000000,4.000000,4.000000,4.000000,4.000000,4.000000
1578523402.608284,102.000000,0.000000,9.044143,-58.132065,-716.435425,-9.330192,48.492634,-17.535355,46.669144,51.738152,112.690842,-10.310555,123.388939,100.392250,86.456131,110.826218,148.936218,164.228897,73.695518,67.613159,212.295227,125.801231,69.637154,76.839363,29.252291,23.859612,-22.402897,52.092289,-129.803482,62.786419,-3.600012,-81.521019,5.974526,-532.652771,8320.000000,0.000000,-1.000000,,,,0.000000,4.000000,4.000000,4.000000,4.000000,4.000000,4.000000,4.000000,4.000000,4.000000,4.000000,4.000000,4.000000,4.000000,4.000000,4.000000,4.000000,4.000000,2.000000,4.000000,3.000000,4.000000,4.000000,4.000000,4.000000,4.000000,4.000000,4.000000,4.000000,4.000000,4.000000,4.000000,4.000000
1578523402.616033,103.000000,0.000000,8.522278,-60.125214,-719.308777,-9.320862,48.956963,-20.081923,45.596832,50.147949,111.039696,-18.505373,121.214272,101.830322,84.831215,114.817955,146.223190,162.526215,72.596184,66.519905,213.621384,124.136971,68.029053,75.736877,27.171757,20.758827,-24.431776,52.040195,-129.160858,61.697990,-3.083591,-82.465141,4.942911,-533.145752,8064.000000,0.000000,-1.000000,,,,0.000000,4.000000,4.000000,4.000000,4.000000,4.000000,4.000000,4.000000,4.000000,4.000000,4.000000,4.000000,4.000000,4.000000,4.000000,4.000000,4.000000,4.000000,2.000000,4.000000,3.000000,4.000000,4.000000,4.000000,4.000000,4.000000,4.000000,4.000000,4.000000,4.000000,4.000000,4.000000,4.000000
1578523402.623682,104.000000,0.000000,8.000935,-60.065086,-719.615112,-9.824362,49.420826,-20.061840,45.551235,50.097805,110.928650,-12.845841,118.016136,103.266953,84.233566,114.190315,149.153885,160.312408,73.036407,65.940559,212.382126,136.833344,70.525124,75.661140,25.606123,19.712427,-25.432985,51.988155,-129.544510,61.636295,-4.618969,-82.895493,4.425147,-532.612610,8192.000000,0.000000,-1.000000,,,,0.000000,4.000000,4.000000,4.000000,4.000000,4.000000,4.000000,4.000000,4.000000,4.000000,4.000000,4.000000,4.000000,4.000000,4.000000,4.000000,4.000000,4.000000,2.000000,4.000000,3.000000,4.000000,4.000000,4.000000,4.000000,4.000000,4.000000,4.000000,4.000000,4.000000,4.000000,4.000000,4.000000
1578523402.631431,105.000000,0.000000,8.505754,-59.492203,-716.844177,-8.788896,48.858582,-16.964855,45.505684,50.560524,113.894646,1.525979,123.026321,103.676506,87.226250,117.665871,165.414993,162.716202,73.476196,67.925903,213.195389,161.311890,84.813576,80.713684,30.708723,20.718357,-22.330629,51.936169,-128.902145,62.600300,-6.665632,-82.812599,5.446363,-532.080017,8064.000000,0.000000,-1.000000,,,,0.000000,4.000000,4.000000,4.000000,4.000000,4.000000,4.000000,4.000000,4.000000,4.000000,4.000000,4.000000,4.000000,4.000000,4.000000,4.000000,4.000000,4.000000,2.000000,4.000000,3.000000,4.000000,4.000000,4.000000,4.000000,4.000000,4.000000,4.000000,4.000000,4.000000,4.000000,4.000000,4.000000
1578523402.639080,106.000000,0.000000,7.984428,-59.945530,-721.255554,-9.292928,47.271263,-16.435070,41.357613,41.792015,103.524345,-8.219137,106.493042,82.034370,80.472359,109.343079,142.172653,161.015015,70.325790,65.806694,214.007828,154.996735,83.703125,74.479126,45.036987,18.646357,-18.718555,52.397053,-128.773239,61.512058,-7.684608,-82.729782,5.953737,-530.522278,8192.000000,0.000000,-1.000000,,,,0.000000,4.000000,4.000000,4.000000,4.000000,4.000000,4.000000,4.000000,4.000000,4.000000,4.000000,4.000000,4.000000,4.000000,4.000000,4.000000,4.000000,4.000000,2.000000,4.000000,3.000000,4.000000,4.000000,4.000000,4.000000,4.000000,4.000000,4.000000,4.000000,4.000000,4.000000,4.000000,4.000000
1578523402.646929,107.000000,0.000000,9.002085,-60.398407,-727.200989,-17.488764,45.172710,-16.931456,36.700871,30.980993,89.574661,-28.210918,80.745522,66.567719,67.058556,88.720917,111.774071,140.854004,64.614441,54.971661,209.691254,143.046875,69.773262,66.199524,39.863747,4.268735,-29.469069,52.344654,-129.157288,62.476185,-7.164103,-82.647057,4.409322,-531.017395,8064.000000,0.000000,-1.000000,,,,0.000000,4.000000,4.000000,4.000000,4.000000,4.000000,4.000000,4.000000,4.000000,4.000000,4.000000,4.000000,4.000000,4.000000,4.000000,4.000000,4.000000,4.000000,2.000000,4.000000,3.000000,4.000000,4.000000,4.000000,4.000000,4.000000,4.000000,4.000000,4.000000,4.000000,4.000000,4.000000,4.000000
1578523402.654678,108.000000,0.000000,11.557185,-59.312366,-720.832764,-19.009735,45.127537,-16.401705,36.664169,38.129501,100.767143,-25.105783,87.331444,86.501152,69.555595,90.683472,137.816132,125.841354,64.549828,54.916687,207.430283,165.467926,76.882980,74.851273,28.541830,12.982415,-26.362677,52.292309,-124.925568,70.618835,-7.156939,-82.051590,9.020297,-528.947937,8064.000000,0.000000,-1.000000,,,,0.000000,4.000000,4.000000,4.000000,4.000000,4.000000,4.000000,4.000000,4.000000,4.000000,4.000000,4.000000,4.000000,4.000000,4.000000,4.000000,4.000000,4.000000,2.000000,4.000000,3.000000,4.000000,4.000000,4.000000,4.000000,4.000000,4.000000,4.000000,4.000000,4.000000,4.000000,4.000000,4.000000
1578523402.662527,109.000000,0.000000,11.545629,-56.688950,-710.368286,-7.195854,45.595230,-16.385302,39.191608,54.501625,123.230476,-7.644781,112.885139,98.209518,77.691170,105.977409,149.473190,141.612946,68.587845,69.220749,216.966446,165.302460,86.036865,80.417442,42.872265,45.789948,6.484200,55.829762,-118.133980,73.112320,-7.662602,-81.969536,20.806149,-521.239502,8192.000000,0.000000,-1.000000,,,,0.000000,4.000000,4.000000,4.000000,4.000000,4.000000,4.000000,4.000000,4.000000,4.000000,4.000000,4.000000,4.000000,4.000000,4.000000,4.000000,4.000000,4.000000,2.000000,4.000000,3.000000,4.000000,4.000000,4.000000,4.000000,4.000000,4.000000,4.000000,4.000000,4.000000,4.000000,4.000000,4.000000
1578523402.670276,110.000000,0.000000,8.969980,-55.093800,-709.145142,-7.701479,45.549637,-16.368917,31.460110,50.857380,118.491859,-2.508931,115.336357,70.931824,65.305786,93.050919,117.016029,158.394409,63.391048,72.741264,217.775116,132.829468,64.412369,63.926769,52.060162,44.718513,4.939254,56.799572,-117.503021,62.782799,-7.142119,-81.887566,23.862265,-516.102844,8064.000000,0.000000,-1.000000,,,,0.000000,4.000000,4.000000,4.000000,4.000000,4.000000,4.000000,4.000000,4.000000,4.000000,4.000000,4.000000,4.000000,4.000000,4.000000,4.000000,4.000000,4.000000,2.000000,4.000000,3.000000,4.000000,4.000000,4.000000,4.000000,4.000000,4.000000,4.000000,4.000000,4.000000,4.000000,4.000000,4.000000
1578523402.678125,111.000000,0.000000,7.935369,-55.551529,-711.000061,-24.616854,44.991264,-15.839727,20.146599,34.909088,93.757988,-15.326935,105.477432,51.373711,53.958431,73.983505,92.796448,141.312943,49.994324,54.206989,195.506058,123.978683,43.835133,51.555153,30.469639,12.366104,-27.373377,47.512005,-120.462448,52.976429,-7.134977,-81.805679,14.607634,-519.689331,8064.000000,0.000000,-1.000000,,,,0.000000,4.000000,4.000000,4.000000,4.000000,4.000000,4.000000,4.000000,4.000000,4.000000,4.000000,4.000000,4.000000,4.000000,4.000000,4.000000,4.000000,4.000000,2.000000,4.000000,3.000000,4.000000,4.000000,4.000000,4.000000,4.000000,4.000000,4.000000,4.000000,4.000000,4.000000,4.000000,4.000000
1578523402.685875,112.000000,0.000000,8.440254,-54.983154,-707.724976,-33.310184,45.459095,-16.849529,28.331581,30.771616,83.407814,-32.747505,105.371948,71.322342,68.776268,86.730034,118.344681,119.120346,49.431511,38.768166,179.925934,137.700867,50.457966,55.606159,13.516092,-12.774467,-51.448566,35.669621,-121.367622,54.974731,-7.127842,-81.723877,7.926360,-523.785034,8064.000000,0.000000,-1.000000,,,,0.000000,4.000000,4.000000,4.000000,4.000000,4.000000,4.000000,4.000000,4.000000,4.000000,4.000000,4.000000,4.000000,4.000000,4.000000,4.000000,4.000000,4.000000,2.000000,4.000000,3.000000,4.000000,4.000000,4.000000,4.000000,4.000000,4.000000,4.000000,4.000000,4.000000,4.000000,4.000000,4.000000
1578523402.693723,113.000000,0.000000,8.431814,-55.440994,-707.017273,-30.199953,45.926456,-16.832680,45.739147,33.304947,86.401329,-31.689117,106.292221,98.943321,85.117744,109.207413,141.816071,132.334564,67.330795,48.472988,193.079346,131.922134,57.586994,58.627476,16.066679,18.520359,-25.756094,35.121128,-120.733437,57.996681,-7.120714,-81.642151,8.431254,-524.286865,8064.000000,0.000000,-1.000000,,,,0.000000,4.000000,4.000000,4.000000,4.000000,4.000000,4.000000,4.000000,4.000000,4.000000,4.000000,4.000000,4.000000,4.000000,4.000000,4.000000,4.000000,4.000000,2.000000,4.000000,3.000000,4.000000,4.000000,4.000000,4.000000,4.000000,4.000000,4.000000,4.000000,4.000000,4.000000,4.000000,4.000000
1578523402.701473,114.000000,0.000000,7.910562,-58.975296,-715.028198,-31.708214,42.803604,-15.277385,50.308792,32.245998,84.776466,-16.272812,103.109001,107.562332,84.519806,119.354614,164.751190,162.458633,83.160904,70.475800,207.758057,125.123543,57.016586,59.081669,17.076252,33.373634,-12.397004,37.650112,-120.612701,56.913044,-7.113594,-81.560509,8.422823,-524.788208,8064.000000,0.000000,-1.000000,,,,0.000000,4.000000,4.000000,4.000000,4.000000,4.000000,4.000000,4.000000,4.000000,4.000000,4.000000,4.000000,4.000000,4.000000,4.000000,4.000000,4.000000,4.000000,2.000000,4.000000,3.000000,4.000000,4.000000,4.000000,4.000000,4.000000,4.000000,4.000000,4.000000,4.000000,4.000000,4.000000,4.000000
1578523402.709322,115.000000,0.000000,8.415471,-63.018883,-725.082397,-40.907276,38.145416,-19.364672,48.720020,31.188112,79.050667,-13.179616,101.467438,98.736816,83.409645,122.312180,175.355667,166.911560,84.616203,71.943779,203.447739,124.998421,59.523674,61.073872,15.007895,30.776157,-14.435889,34.022717,-120.492088,57.368950,-7.106480,-81.478951,2.773374,-526.314758,8064.000000,0.000000,-1.000000,,,,0.000000,4.000000,4.000000,4.000000,4.000000,4.000000,4.000000,4.000000,4.000000,4.000000,4.000000,4.000000,4.000000,4.000000,4.000000,4.000000,4.000000,4.000000,2.000000,4.000000,3.000000,4.000000,4.000000,4.000000,4.000000,4.000000,4.000000,4.000000,4.000000,4.000000,4.000000,4.000000,4.000000
1578523402.717071,116.000000,0.000000,8.407056,-62.955864,-725.382935,-43.430470,37.081631,-27.037615,48.158482,32.182568,82.561363,-22.397205,100.340324,76.586800,82.813416,107.830894,142.872620,139.565155,76.326454,50.333378,196.577621,123.847778,58.438507,59.987156,14.992887,24.078714,-21.600941,38.091259,-121.397240,57.824402,-7.099373,-81.397469,3.283421,-526.814026,8064.000000,0.000000,-1.000000,,,,0.000000,4.000000,4.000000,4.000000,4.000000,4.000000,4.000000,4.000000,4.000000,4.000000,4.000000,4.000000,4.000000,4.000000,4.000000,4.000000,4.000000,4.000000,2.000000,4.000000,3.000000,4.000000,4.000000,4.000000,4.000000,4.000000,4.000000,4.000000,4.000000,4.000000,4.000000,4.000000,4.000000
1578523402.724920,117.000000,0.000000,8.398649,-62.380089,-721.067810,-26.976784,38.070190,-27.523397,40.418015,32.150383,96.324951,-24.426090,104.855370,61.125599,76.063934,84.133316,111.447693,115.323029,62.403976,37.975349,195.355408,137.057266,58.380070,57.363068,17.029175,2.003353,-41.066521,57.027527,-118.198914,57.253757,-7.092274,-81.316071,19.177574,-523.210327,8064.000000,0.000000,-1.000000,,,,0.000000,4.000000,4.000000,4.000000,4.000000,4.000000,4.000000,4.000000,4.000000,4.000000,4.000000,4.000000,4.000000,4.000000,4.000000,4.000000,4.000000,4.000000,2.000000,4.000000,3.000000,4.000000,4.000000,4.000000,4.000000,4.000000,4.000000,4.000000,4.000000,4.000000,4.000000,4.000000,4.000000
1578523402.732669,118.000000,0.000000,8.390250,-62.830528,-728.039063,-18.744678,37.519299,-21.342028,33.198109,32.118233,104.946579,-22.863203,110.391541,67.731140,72.398132,84.562004,128.772141,123.412834,55.674908,51.270710,196.185699,153.843292,70.116562,59.869804,19.576248,8.668016,-35.384426,70.816650,-113.465332,59.760605,-7.085182,-81.234756,31.466089,-525.764038,8064.000000,0.000000,-1.000000,,,,0.000000,4.000000,4.000000,4.000000,4.000000,4.000000,4.000000,4.000000,4.000000,4.000000,4.000000,4.000000,4.000000,4.000000,4.000000,4.000000,4.000000,4.000000,2.000000,4.000000,3.000000,4.000000,4.000000,4.000000,4.000000,4.000000,4.000000,4.000000,4.000000,4.000000,4.000000,4.000000,4.000000
1578523402.740518,119.000000,0.000000,8.381860,-63.280521,-741.669983,-40.777218,37.481781,-19.269403,33.677731,32.086117,102.277527,-24.378801,102.076019,81.509560,75.402657,102.426163,145.566452,151.494553,65.362823,68.142517,204.707458,153.689438,80.815674,63.912498,20.069494,41.479862,-2.528530,69.207375,-114.377510,63.290588,-7.078096,-81.153519,24.767956,-541.648499,7936.000000,0.000000,-1.000000,,,,0.000000,4.000000,4.000000,4.000000,4.000000,4.000000,4.000000,4.000000,4.000000,4.000000,4.000000,4.000000,4.000000,4.000000,4.000000,4.000000,4.000000,4.000000,2.000000,4.000000,3.000000,4.000000,4.000000,4.000000,4.000000,4.000000,4.000000,4.000000,4.000000,4.000000,4.000000,4.000000,4.000000
1578523402.748267,120.000000,0.000000,8.373478,-63.217239,-740.928345,-51.505669,37.444298,-20.275776,33.131233,31.541208,104.226532,-19.739038,97.871384,82.966515,76.865715,105.400658,134.651642,162.112289,74.528229,70.638474,219.374542,146.356262,78.683578,64.874229,19.536604,57.335819,14.909896,69.138168,-115.801590,63.227299,-7.071018,-81.585190,24.743187,-546.235107,8192.000000,0.000000,-1.000000,,,,0.000000,4.000000,4.000000,4.000000,4.000000,4.000000,4.000000,4.000000,4.000000,4.000000,4.000000,4.000000,4.000000,4.000000,4.000000,4.000000,4.000000,4.000000,2.000000,4.000000,3.000000,4.000000,4.000000,4.000000,4.000000,4.000000,4.000000,4.000000,4.000000,4.000000,4.000000,4.000000,4.000000
1578523402.756116,121.000000,0.000000,7.852284,-62.128380,-729.930969,-32.479805,37.919674,-20.255499,30.021179,32.535309,110.788971,-12.026991,113.158127,79.806625,75.763206,100.167053,132.465714,151.180939,66.248573,66.465271,219.667984,134.415039,74.502327,62.758072,19.004246,32.150276,3.100114,74.710052,-113.121689,61.625610,-6.551127,-80.990784,34.974854,-532.355530,7936.000000,0.000000,-1.000000,,,,0.000000,4.000000,4.000000,4.000000,4.000000,4.000000,4.000000,4.000000,4.000000,4.000000,4.000000,4.000000,4.000000,4.000000,4.000000,4.000000,4.000000,4.000000,2.000000,4.000000,3.000000,4.000000,4.000000,4.000000,4.000000,4.000000,4.000000,4.000000,4.000000,4.000000,4.000000,4.000000,4.000000
1578523402.763865,122.000000,0.000000,7.844432,-63.091892,-732.277954,-32.960144,37.881756,-19.722424,29.478338,31.477131,105.037155,-18.168810,117.147530,79.726814,74.148979,101.605347,142.589661,144.875916,57.464375,65.373169,208.679092,125.049858,75.966286,61.669674,18.985243,11.605306,-10.236320,68.481499,-115.059853,58.999882,-8.083037,-80.909790,24.683470,-532.848816,8192.000000,0.000000,-1.000000,,,,0.000000,4.000000,4.000000,4.000000,4.000000,4.000000,4.000000,4.000000,4.000000,4.000000,4.000000,4.000000,4.000000,4.000000,4.000000,4.000000,4.000000,4.000000,2.000000,4.000000,3.000000,4.000000,4.000000,4.000000,4.000000,4.000000,4.000000,4.000000,4.000000,4.000000,4.000000,4.000000,4.000000
1578523402.771514,123.000000,0.000000,8.349408,-63.028801,-735.135437,-46.773338,37.331055,-19.702702,28.936039,31.445654,98.778275,-28.407051,101.132950,78.621452,72.536369,101.503746,142.447067,145.756683,56.381268,64.282150,202.316559,136.206863,74.864685,60.582363,19.991898,8.003957,-20.995314,61.233528,-120.585815,56.376778,-10.639057,-81.341698,11.325453,-543.085205,8064.000000,0.000000,-1.000000,,,,0.000000,4.000000,4.000000,4.000000,4.000000,4.000000,4.000000,4.000000,4.000000,4.000000,4.000000,4.000000,4.000000,4.000000,4.000000,4.000000,4.000000,4.000000,2.000000,4.000000,3.000000,4.000000,4.000000,4.000000,4.000000,4.000000,4.000000,4.000000,4.000000,4.000000,4.000000,4.000000,4.000000
1578523402.779263,124.000000,0.000000,7.828238,-54.247826,-717.990051,-28.265028,38.319363,-19.682999,31.471205,39.106518,110.474365,-21.711979,102.570274,80.081291,71.951012,102.940704,143.843079,145.610931,56.837708,61.140945,201.088608,154.019363,74.789818,58.983318,22.023188,24.406210,-13.794831,73.479988,-116.875488,62.474247,-11.141238,-80.234718,28.750025,-532.285706,8064.000000,0.000000,-1.000000,,,,0.000000,4.000000,4.000000,4.000000,4.000000,4.000000,4.000000,4.000000,4.000000,4.000000,4.000000,4.000000,4.000000,4.000000,4.000000,4.000000,4.000000,4.000000,2.000000,4.000000,3.000000,4.000000,4.000000,4.000000,4.000000,4.000000,4.000000,4.000000,4.000000,4.000000,4.000000,4.000000,4.000000
1578523402.786912,125.000000,0.000000,8.333230,-43.937164,-704.964355,-10.800865,40.845146,-19.663315,38.619221,47.272537,121.645943,-10.921035,127.595909,85.129410,72.391884,114.632629,150.365906,159.311462,64.473175,64.156731,205.502899,159.506378,80.356056,64.565361,27.129370,57.202316,15.962553,87.252663,-109.579124,74.206650,-10.617276,-77.590378,47.182812,-518.932861,8192.000000,0.000000,-1.000000,,,,0.000000,4.000000,4.000000,4.000000,4.000000,4.000000,4.000000,4.000000,4.000000,4.000000,4.000000,4.000000,4.000000,4.000000,4.000000,4.000000,4.000000,4.000000,2.000000,4.000000,3.000000,4.000000,4.000000,4.000000,4.000000,4.000000,4.000000,4.000000,4.000000,4.000000,4.000000,4.000000,4.000000
1578523402.794661,126.000000,0.000000,13.453102,-43.893230,-714.002991,-27.713140,41.317123,-19.643652,43.195988,44.661163,119.473015,-13.987038,146.442673,84.531464,74.883598,121.184669,143.036057,178.639343,77.742035,73.323341,218.630737,153.705841,86.429543,73.218742,39.409931,60.734856,20.049154,85.626945,-107.931084,76.183723,-10.606659,-76.487152,39.956142,-522.516541,8064.000000,0.000000,-1.000000,,,,0.000000,4.000000,4.000000,4.000000,4.000000,4.000000,4.000000,4.000000,4.000000,4.000000,4.000000,4.000000,4.000000,4.000000,4.000000,4.000000,4.000000,4.000000,2.000000,4.000000,3.000000,4.000000,4.000000,4.000000,4.000000,4.000000,4.000000,4.000000,4.000000,4.000000,4.000000,4.000000,4.000000
1578523402.802311,127.000000,0.000000,19.080675,-47.439079,-720.468506,-38.454659,41.788624,-19.624008,46.229713,43.078041,118.327904,-12.434588,141.168030,83.934113,79.424095,118.499382,142.380203,168.204285,78.177116,70.685913,225.078766,141.244446,86.343117,72.632706,47.062832,28.366430,-12.278586,84.515678,-107.823151,74.569077,-11.108873,-76.923485,33.762341,-522.506836,8192.000000,0.000000,-1.000000,,,,0.000000,4.000000,4.000000,4.000000,4.000000,4.000000,4.000000,4.000000,4.000000,4.000000,4.000000,4.000000,4.000000,4.000000,4.000000,4.000000,4.000000,4.000000,2.000000,4.000000,3.000000,4.000000,4.000000,4.000000,4.000000,4.000000,4.000000,4.000000,4.000000,4.000000,4.000000,4.000000,4.000000
1578523402.810060,0.000000,0.000000,18.548773,-47.391640,-718.722351,-37.903385,40.208374,-19.604385,48.747585,44.573425,112.055725,-4.729846,112.821732,89.491203,79.857491,116.842415,163.776276,136.241211,70.406631,56.256256,213.571640,139.051910,85.743950,67.431870,42.400383,3.209858,-31.240667,78.277321,-110.279434,76.545792,-10.584944,-76.846558,33.215759,-524.035583,0.000000,195.000000,-1.000000,,,,0.000000,4.000000,4.000000,4.000000,4.000000,4.000000,4.000000,4.000000,4.000000,4.000000,4.000000,4.000000,4.000000,4.000000,4.000000,4.000000,4.000000,4.000000,2.000000,4.000000,3.000000,4.000000,4.000000,4.000000,4.000000,4.000000,4.000000,4.000000,4.000000,4.000000,4.000000,4.000000,4.000000
1578523402.817709,1.000000,0.000000,13.914841,-48.369888,-727.747253,-53.250095,35.039963,-19.584780,41.006531,33.759621,89.892387,-19.084091,86.042244,85.811966,75.162247,112.623009,163.099686,123.797279,67.772125,49.533333,199.511917,158.912872,85.145386,66.851616,36.204136,22.181007,-11.209426,55.122116,-116.322998,71.341042,-10.574359,-76.769714,20.362030,-540.434631,0.000000,146.000000,-1.000000,,,,0.000000,4.000000,4.000000,4.000000,4.000000,4.000000,3.000000,4.000000,4.000000,4.000000,3.000000,4.000000,4.000000,4.000000,4.000000,4.000000,4.000000,4.000000,2.000000,4.000000,3.000000,4.000000,4.000000,4.000000,4.000000,4.000000,4.000000,4.000000,4.000000,4.000000,4.000000,4.000000,4.000000
1578523402.825458,2.000000,0.000000,11.849644,-51.398441,-733.686157,-63.966076,29.363895,-19.565195,28.145012,20.905348,78.520447,-41.629108,87.494659,70.341537,71.497345,100.202698,136.269913,137.006821,66.678711,53.586365,196.748306,164.907791,75.316650,64.733482,38.219215,37.543442,4.699219,47.374687,-119.796417,59.474827,-10.563785,-76.692940,12.136539,-546.560852,0.000000,149.000000,-1.000000,,,,0.000000,4.000000,4.000000,4.000000,4.000000,4.000000,3.000000,4.000000,4.000000,4.000000,3.000000,4.000000,4.000000,4.000000,4.000000,4.000000,4.000000,4.000000,2.000000,4.000000,3.000000,4.000000,4.000000,4.000000,4.000000,4.000000,4.000000,4.000000,4.000000,4.000000,4.000000,4.000000,4.000000
1578523402.833107,3.000000,0.000000,11.837793,-51.347046,-720.644775,-52.107239,29.334532,-19.545630,25.039944,25.499826,86.647057,-33.895172,103.817421,68.219917,71.425850,95.487106,134.082367,146.100571,63.535107,55.071239,198.602829,132.435196,61.395180,60.053364,36.642532,20.070002,-9.151634,64.250389,-118.650978,54.799965,-10.553221,-76.616249,21.867992,-533.193787,0.000000,207.000000,-1.000000,,,,0.000000,4.000000,4.000000,4.000000,4.000000,4.000000,3.000000,4.000000,4.000000,4.000000,3.000000,4.000000,4.000000,4.000000,4.000000,4.000000,4.000000,4.000000,2.000000,4.000000,3.000000,4.000000,4.000000,4.000000,4.000000,4.000000,4.000000,4.000000,4.000000,4.000000,4.000000,4.000000,4.000000
1578523402.840856,4.000000,0.000000,11.825956,-50.782875,-711.718994,-42.824364,33.920582,-19.526085,26.040545,32.653812,91.175789,-13.861278,107.816170,74.305542,71.867241,99.494186,144.717514,144.416016,62.958752,53.477707,199.942688,104.097633,58.769680,59.480488,21.734097,17.998650,-11.706585,72.904091,-118.532333,56.283627,-11.055488,-76.539635,27.999971,-525.993958,0.000000,189.000000,-1.000000,,,,0.000000,4.000000,4.000000,4.000000,4.000000,4.000000,3.000000,4.000000,4.000000,4.000000,3.000000,4.000000,4.000000,4.000000,4.000000,4.000000,4.000000,4.000000,2.000000,4.000000,3.000000,4.000000,4.000000,4.000000,4.000000,4.000000,4.000000,4.000000,4.000000,4.000000,4.000000,4.000000,4.000000
1578523402.848505,5.000000,0.000000,11.301310,-51.244915,-715.622681,-44.320000,36.963585,-19.506559,26.014503,31.082699,92.110260,-11.283314,105.144249,73.718414,71.282555,100.933151,141.495880,147.861343,63.408615,53.424229,202.306854,126.044823,64.864761,59.421009,12.994413,50.801163,13.433327,73.856827,-119.439438,59.817089,-11.044433,-76.463097,25.407867,-528.544861,0.000000,195.000000,-1.000000,,,,0.000000,4.000000,4.000000,4.000000,4.000000,4.000000,3.000000,4.000000,4.000000,4.000000,3.000000,4.000000,4.000000,4.000000,4.000000,4.000000,4.000000,4.000000,2.000000,4.000000,3.000000,4.000000,4.000000,4.000000,4.000000,4.000000,4.000000,4.000000,4.000000,4.000000,4.000000,4.000000,4.000000
1578523402.856254,6.000000,0.000000,11.290009,-51.193668,-711.830139,-42.737217,37.439442,-19.487053,31.116695,32.590076,100.736099,-12.810492,107.090385,78.260086,70.698448,99.806580,150.072327,154.380142,62.832386,54.909264,202.104553,158.739288,70.440918,60.387230,28.878855,56.391388,13.419893,82.500916,-117.268715,64.885475,-10.520568,-76.386635,26.920921,-527.503479,0.000000,212.000000,-1.000000,,,,0.000000,4.000000,4.000000,4.000000,4.000000,4.000000,3.000000,4.000000,4.000000,4.000000,3.000000,4.000000,4.000000,4.000000,4.000000,4.000000,4.000000,4.000000,2.000000,4.000000,3.000000,4.000000,4.000000,4.000000,4.000000,4.000000,4.000000,4.000000,4.000000,4.000000,4.000000,4.000000,4.000000
1578523402.863903,7.000000,0.000000,11.278718,-50.629654,-702.913147,-39.617558,36.889183,-19.467566,37.752247,38.711334,106.789207,-12.284861,110.573044,85.361313,71.653397,102.783691,163.255585,152.687302,65.333656,56.392818,206.005005,156.529266,72.934578,62.378124,47.824337,24.540125,-16.849937,88.059441,-115.100166,67.897514,-11.022867,-76.310242,30.483746,-524.924744,0.000000,210.000000,-1.000000,,,,0.000000,4.000000,4.000000,4.000000,4.000000,4.000000,3.000000,4.000000,4.000000,4.000000,3.000000,4.000000,4.000000,4.000000,4.000000,4.000000,4.000000,4.000000,2.000000,4.000000,3.000000,4.000000,4.000000,4.000000,4.000000,4.000000,4.000000,4.000000,4.000000,4.000000,4.000000,4.000000,4.000000
1578523402.871652,8.000000,0.000000,11.780260,-50.579025,-702.723083,-38.039478,37.877934,-19.448097,37.201672,40.211082,105.656776,-11.246935,112.513748,80.147743,74.145844,104.732193,151.297455,155.611542,69.883705,57.874886,218.619507,132.270172,73.374466,61.802925,48.289330,32.207893,-12.217702,87.458565,-113.959427,67.316795,-10.499024,-76.233932,30.453260,-525.938232,0.000000,196.000000,-1.000000,,,,0.000000,4.000000,4.000000,4.000000,4.000000,4.000000,3.000000,4.000000,4.000000,4.000000,3.000000,4.000000,4.000000,4.000000,4.000000,4.000000,4.000000,4.000000,2.000000,4.000000,3.000000,4.000000,4.000000,4.000000,4.000000,4.000000,4.000000,4.000000,4.000000,4.000000,4.000000,4.000000,4.000000
1578523402.879301,9.000000,0.000000,11.255659,-50.528446,-705.610107,-36.975800,37.840054,-19.428650,33.574726,39.145233,105.551117,-3.543380,115.478157,70.324005,75.097336,103.601822,138.838470,164.173874,71.865105,58.329834,219.426529,140.343033,74.839554,59.689838,42.600018,64.996201,20.615028,85.319824,-114.358284,67.249481,-8.437243,-76.157700,29.909986,-524.899475,0.000000,171.000000,-1.000000,,,,0.000000,4.000000,4.000000,4.000000,4.000000,4.000000,3.000000,4.000000,4.000000,4.000000,3.000000,4.000000,4.000000,4.000000,4.000000,4.000000,4.000000,4.000000,2.000000,4.000000,3.000000,4.000000,4.000000,4.000000,4.000000,4.000000,4.000000,4.000000,4.000000,4.000000,4.000000,4.000000,4.000000
1578523402.887050,10.000000,0.000000,11.757224,-50.990738,-704.904480,-37.451641,36.776573,-19.409222,32.515511,38.593266,104.932747,-4.565478,115.875504,67.176758,74.509422,99.908478,137.673996,152.727661,70.767601,56.220219,201.771210,149.946274,74.251892,59.117329,45.634338,44.931202,11.876465,78.055016,-114.756752,67.695053,-6.890344,-76.081543,29.367256,-521.810486,0.000000,188.000000,-1.000000,,,,0.000000,4.000000,4.000000,4.000000,4.000000,4.000000,3.000000,4.000000,4.000000,4.000000,3.000000,4.000000,4.000000,4.000000,4.000000,4.000000,4.000000,4.000000,2.000000,4.000000,3.000000,4.000000,4.000000,4.000000,4.000000,4.000000,4.000000,4.000000,4.000000,4.000000,4.000000,4.000000,4.000000
1578523402.894699,11.000000,0.000000,13.796749,-50.939747,-703.173950,-39.465473,37.252617,-19.389811,39.149662,39.067493,101.750893,-23.022451,107.554497,75.314713,75.973373,100.321388,135.997849,134.626205,70.184013,54.112717,193.877136,125.693764,72.639183,60.083855,45.588703,12.578577,-20.443104,74.387215,-113.616348,67.114532,-6.883454,-76.005463,29.850710,-520.775879,0.000000,204.000000,-1.000000,,,,0.000000,4.000000,4.000000,4.000000,4.000000,4.000000,3.000000,4.000000,4.000000,4.000000,3.000000,4.000000,4.000000,4.000000,4.000000,4.000000,4.000000,4.000000,2.000000,4.000000,3.000000,4.000000,4.000000,4.000000,4.000000,4.000000,4.000000,4.000000,4.000000,4.000000,4.000000,4.000000,4.000000
1578523402.902548,12.000000,0.000000,15.321414,-50.375988,-702.983582,-38.913185,37.728188,-19.370422,42.700256,40.054066,101.649139,-35.307121,98.728996,84.982986,78.461502,106.887733,140.990067,144.235168,71.652290,57.135529,207.016586,123.003967,79.233208,59.510948,39.389271,5.386512,-31.704712,78.415390,-109.912994,67.047417,-6.876570,-75.929459,31.872141,-520.255066,0.000000,203.000000,-1.000000,,,,0.000000,4.000000,4.000000,4.000000,4.000000,4.000000,3.000000,4.000000,4.000000,4.000000,3.000000,4.000000,4.000000,4.000000,4.000000,4.000000,4.000000,4.000000,2.000000,4.000000,3.000000,4.000000,4.000000,4.000000,4.000000,4.000000,4.000000,4.000000,4.000000,4.000000,4.000000,4.000000,4.000000
1578523402.910297,13.000000,0.000000,15.306092,-50.325611,-702.280579,-40.925556,35.639175,-19.351051,32.401146,37.962730,101.547493,-34.246174,101.194366,76.180054,78.895859,106.780846,141.361893,160.501190,71.067818,61.693779,215.014694,154.163025,87.871925,59.451439,38.837059,38.201637,-2.442238,76.285698,-109.803078,66.980370,-6.869694,-75.853523,33.891552,-518.196350,0.000000,212.000000,-1.000000,,,,0.000000,4.000000,4.000000,4.000000,4.000000,4.000000,3.000000,4.000000,4.000000,4.000000,3.000000,4.000000,4.000000,4.000000,4.000000,4.000000,4.000000,4.000000,2.000000,4.000000,3.000000,4.000000,4.000000,4.000000,4.000000,4.000000,4.000000,4.000000,4.000000,4.000000,4.000000,4.000000,4.000000
1578523402.918146,14.000000,0.000000,15.290786,-51.300926,-702.603943,-44.987194,33.552254,-19.331699,22.625154,30.745281,95.804916,-26.519619,101.093178,62.257721,77.791321,99.494576,125.835915,153.674026,63.817261,60.093620,206.594559,150.931931,82.143028,59.391987,42.900787,62.265999,19.611486,69.542740,-112.257378,66.913391,-6.862824,-76.290497,32.319199,-517.678162,0.000000,194.000000,-1.000000,,,,0.000000,4.000000,4.000000,4.000000,4.000000,4.000000,3.000000,4.000000,4.000000,4.000000,3.000000,4.000000,4.000000,4.000000,4.000000,4.000000,4.000000,4.000000,2.000000,4.000000,3.000000,4.000000,4.000000,4.000000,4.000000,4.000000,4.000000,4.000000,4.000000,4.000000,4.000000,4.000000,4.000000
1578523402.925896,15.000000,0.000000,15.275496,-47.659882,-701.388550,-45.455029,34.544342,-19.312368,26.705093,31.227356,91.093727,-19.313612,86.120285,76.554436,78.739174,100.933540,138.017776,144.802399,59.650879,57.469425,196.644379,120.524590,73.342934,59.845413,40.806606,35.024246,-8.613254,69.986023,-104.965630,66.846481,-7.368782,-75.701385,32.286880,-512.545105,0.000000,213.000000,-1.000000,,,,0.000000,4.000000,4.000000,4.000000,4.000000,4.000000,3.000000,4.000000,4.000000,4.000000,3.000000,4.000000,4.000000,4.000000,4.000000,4.000000,4.000000,4.000000,2.000000,4.000000,3.000000,4.000000,4.000000,4.000000,4.000000,4.000000,4.000000,4.000000,4.000000,4.000000,4.000000,4.000000,4.000000
1578523402.933744,16.000000,0.000000,15.260220,-42.996838,-699.148682,-48.486496,37.073902,-19.293056,29.755312,36.837154,94.079559,-29.550709,77.316216,87.759933,78.147614,102.371071,163.520782,144.144775,59.078407,56.899136,191.319519,119.891243,72.756767,57.734287,36.663235,2.681531,-40.912334,69.916039,-98.194000,64.215530,-6.848592,-75.625679,35.331516,-500.237701,0.000000,202.000000,-1.000000,,,,0.000000,4.000000,4.000000,4.000000,4.000000,4.000000,3.000000,4.000000,4.000000,4.000000,3.000000,4.000000,4.000000,4.000000,4.000000,4.000000,4.000000,4.000000,2.000000,4.000000,3.000000,4.000000,4.000000,4.000000,4.000000,4.000000,4.000000,4.000000,4.000000,4.000000,4.000000,4.000000,4.000000
1578523402.941494,17.000000,0.000000,15.244960,-46.543583,-702.039307,-61.771343,36.524006,-19.273764,26.135813,28.082369,90.908554,-47.982697,89.033775,65.108070,73.454079,89.448189,135.664948,134.257050,54.403942,54.790955,189.589737,127.463661,68.581451,55.625271,35.600929,5.755772,-38.820137,60.102528,-110.403496,60.561569,-6.841744,-77.601341,31.193619,-499.737457,0.000000,187.000000,-1.000000,,,,0.000000,4.000000,4.000000,4.000000,4.000000,4.000000,3.000000,4.000000,4.000000,4.000000,3.000000,4.000000,4.000000,4.000000,4.000000,4.000000,4.000000,4.000000,2.000000,4.000000,3.000000,4.000000,4.000000,4.000000,4.000000,4.000000,4.000000,4.000000,4.000000,4.000000,4.000000,4.000000,4.000000
1578523402.949343,18.000000,0.000000,14.716894,-50.086784,-704.414185,-72.991623,31.359278,-19.254490,24.058395,15.746593,82.099701,-42.293690,109.970383,50.171169,70.303703,83.717712,103.221596,131.045868,53.836720,53.197701,192.989899,106.823380,65.435944,55.056824,33.001225,38.570530,-5.960805,53.888580,-120.549507,58.962547,-7.347723,-80.087837,24.495760,-511.032593,0.000000,166.000000,-1.000000,,,,0.000000,4.000000,4.000000,4.000000,4.000000,4.000000,3.000000,4.000000,4.000000,4.000000,3.000000,4.000000,4.000000,4.000000,4.000000,4.000000,4.000000,4.000000,2.000000,4.000000,3.000000,4.000000,4.000000,4.000000,4.000000,4.000000,4.000000,4.000000,4.000000,4.000000,4.000000,4.000000,4.000000
1578523402.957092,19.000000,0.000000,15.727818,-46.446953,-696.530273,-55.482735,35.430485,-19.235235,25.059978,29.064180,91.248367,-22.251394,122.168098,66.018433,70.233398,98.505791,123.631195,147.837891,62.500832,55.195786,201.002029,95.434502,72.549995,55.001770,26.301558,71.352470,26.865667,66.142387,-109.659729,58.390762,-6.827554,-77.443649,36.778957,-506.418976,0.000000,157.000000,-1.000000,,,,0.000000,4.000000,4.000000,4.000000,4.000000,4.000000,3.000000,4.000000,4.000000,4.000000,3.000000,4.000000,4.000000,4.000000,4.000000,4.000000,4.000000,4.000000,2.000000,4.000000,3.000000,4.000000,4.000000,4.000000,4.000000,4.000000,4.000000,4.000000,4.000000,4.000000,4.000000,4.000000,4.000000
1578523402.964941,20.000000,0.000000,17.763372,-42.297943,-683.526062,-22.606737,53.343769,-19.216000,29.650303,55.701782,118.336609,-9.921451,122.045937,78.772926,70.675987,108.663696,156.328079,154.356720,68.079353,57.191872,207.980515,128.159576,77.092834,55.459587,22.685513,57.434967,17.095213,86.076241,-97.755196,59.870834,-4.769445,-71.725182,56.229355,-495.143341,0.000000,186.000000,-1.000000,,,,0.000000,4.000000,4.000000,4.000000,4.000000,4.000000,3.000000,4.000000,4.000000,4.000000,3.000000,4.000000,4.000000,4.000000,4.000000,4.000000,4.000000,4.000000,2.000000,4.000000,3.000000,4.000000,4.000000,4.000000,4.000000,4.000000,4.000000,4.000000,4.000000,4.000000,3.000000,4.000000,4.000000
1578523402.972690,21.000000,0.000000,19.284071,-42.768467,-686.945068,3.569715,63.034016,-19.196783,36.287319,63.338390,132.577240,-0.167939,125.513634,79.206978,70.092491,105.990929,162.838409,143.945953,65.959991,57.134682,206.746902,160.851929,78.554199,61.045155,30.867956,27.633940,-9.588549,91.118370,-98.170258,67.503273,-3.226214,-70.627815,43.865433,-511.058441,0.000000,149.000000,-1.000000,,,,0.000000,4.000000,4.000000,4.000000,4.000000,4.000000,3.000000,4.000000,4.000000,4.000000,3.000000,4.000000,4.000000,4.000000,4.000000,4.000000,4.000000,4.000000,2.000000,4.000000,3.000000,4.000000,4.000000,4.000000,4.000000,4.000000,4.000000,4.000000,4.000000,4.000000,3.000000,4.000000,4.000000
1578523402.980539,22.000000,0.000000,18.751966,-44.776978,-713.950439,-6.177444,55.278675,-19.177588,36.763851,56.608383,125.778000,2.396331,125.900940,79.127769,70.022400,105.372116,151.393524,147.391754,65.894035,56.564724,201.924774,155.050049,84.116669,66.112312,46.734524,17.862717,-19.322550,81.796486,-99.610550,73.589615,-3.222988,-75.172569,13.565159,-541.829468,0.000000,202.000000,-1.000000,,,,0.000000,4.000000,4.000000,4.000000,4.000000,4.000000,3.000000,4.000000,4.000000,4.000000,3.000000,4.000000,4.000000,4.000000,4.000000,4.000000,4.000000,4.000000,2.000000,4.000000,3.000000,4.000000,4.000000,4.000000,4.000000,4.000000,4.000000,4.000000,4.000000,4.000000,3.000000,4.000000,4.000000
1578523402.988288,23.000000,0.000000,18.733213,-46.270664,-734.262146,-10.786652,50.095192,-19.158409,36.727089,53.474854,122.062477,-7.349655,97.057091,80.587105,70.465195,106.292389,142.011368,161.090515,66.853783,57.020981,206.851044,141.048859,88.135117,66.559021,51.303173,40.921776,3.773695,87.868530,-97.459656,74.028847,-3.219765,-79.199959,16.115696,-552.056824,0.000000,209.000000,-1.000000,,,,0.000000,4.000000,4.000000,4.000000,4.000000,4.000000,3.000000,4.000000,4.000000,4.000000,3.000000,4.000000,4.000000,4.000000,4.000000,4.000000,4.000000,4.000000,2.000000,4.000000,3.000000,4.000000,4.000000,4.000000,4.000000,4.000000,4.000000,4.000000,4.000000,4.000000,3.000000,4.000000,4.000000
1578523402.996137,24.000000,0.000000,18.714481,-46.737213,-727.374023,3.070289,52.609200,-19.139252,42.331387,53.934196,129.632721,-7.855126,77.985672,86.147537,70.394730,107.724556,150.587296,164.006348,66.274109,56.963959,216.900604,154.241135,89.585442,66.492462,45.610844,73.188545,33.513512,106.242203,-97.362198,73.954819,-3.216545,-78.607941,37.638042,-548.940674,0.000000,99.000000,-1.000000,,,,0.000000,4.000000,4.000000,4.000000,4.000000,4.000000,3.000000,4.000000,4.000000,4.000000,3.000000,4.000000,4.000000,4.000000,4.000000,4.000000,4.000000,4.000000,2.000000,4.000000,3.000000,4.000000,4.000000,4.000000,4.000000,4.000000,4.000000,4.000000,4.000000,4.000000,3.000000,4.000000,4.000000
1578523403.003886,25.000000,0.000000,18.695766,-46.177654,-718.954346,2.041578,49.992485,-19.120111,43.827518,52.854622,133.092834,-2.206245,110.728203,94.779343,70.324333,109.668114,166.846970,161.278244,66.207832,56.906998,212.581146,150.497147,85.906113,64.374687,48.129337,66.961510,26.813332,99.982117,-98.803299,72.342400,-3.213328,-78.016510,29.908096,-554.545593,0.000000,171.000000,-1.000000,,,,0.000000,4.000000,4.000000,4.000000,4.000000,4.000000,3.000000,4.000000,4.000000,4.000000,3.000000,4.000000,4.000000,4.000000,4.000000,4.000000,4.000000,4.000000,2.000000,4.000000,3.000000,4.000000,4.000000,4.000000,4.000000,4.000000,4.000000,4.000000,4.000000,4.000000,3.000000,4.000000,4.000000
1578523403.011535,26.000000,0.000000,18.164249,-46.644299,-729.004639,-14.883541,44.301468,-19.100992,40.706768,52.288948,124.754616,-6.819424,137.796951,95.197380,70.254013,105.968704,163.090378,160.091324,64.090340,56.337269,200.573685,120.603065,72.999695,59.694927,45.004284,34.586861,-3.982713,76.292389,-102.294235,68.167496,-3.210115,-81.015419,3.724342,-563.734619,0.000000,193.000000,-1.000000,,,,0.000000,4.000000,4.000000,4.000000,4.000000,4.000000,3.000000,4.000000,4.000000,4.000000,3.000000,4.000000,4.000000,4.000000,4.000000,4.000000,4.000000,4.000000,2.000000,4.000000,3.000000,4.000000,4.000000,4.000000,4.000000,4.000000,4.000000,4.000000,4.000000,4.000000,3.000000,4.000000,4.000000
1578523403.019284,27.000000,0.000000,18.146086,-46.597656,-732.378174,-21.022503,42.718704,-19.081890,39.640419,51.723839,117.450371,-9.376707,109.966858,92.025261,70.183762,103.298630,154.722153,157.367126,61.974972,56.280933,198.321838,125.610664,66.772850,57.583950,30.087484,18.654837,-14.235141,73.651993,-105.268867,65.022400,-3.206905,-82.472862,-0.894767,-564.196533,0.000000,216.000000,-1.000000,,,,0.000000,4.000000,4.000000,4.000000,4.000000,4.000000,3.000000,4.000000,4.000000,4.000000,3.000000,4.000000,4.000000,4.000000,4.000000,4.000000,4.000000,4.000000,2.000000,4.000000,3.000000,4.000000,4.000000,4.000000,4.000000,4.000000,4.000000,4.000000,4.000000,4.000000,3.000000,4.000000,4.000000
1578523403.026933,28.000000,0.000000,18.640760,-46.551056,-727.030396,-19.463020,43.188808,-19.062809,40.113598,52.184937,117.332924,-2.700663,105.241501,90.907593,70.113571,107.297897,161.234100,157.722580,61.912994,56.737473,193.508133,140.869675,71.321465,58.552010,30.570219,37.610542,-4.477315,80.245010,-105.676414,65.983025,-3.203698,-81.877571,5.259974,-561.581055,0.000000,193.000000,-1.000000,,,,0.000000,4.000000,4.000000,4.000000,4.000000,4.000000,3.000000,4.000000,4.000000,4.000000,3.000000,4.000000,4.000000,4.000000,4.000000,4.000000,4.000000,4.000000,2.000000,4.000000,3.000000,4.000000,4.000000,4.000000,4.000000,4.000000,4.000000,4.000000,4.000000,4.000000,3.000000,4.000000,4.000000
1578523403.034682,29.000000,0.000000,17.596479,-46.504505,-733.482849,-17.905094,43.658440,-19.043745,40.073486,52.645569,116.702766,-1.159501,129.751648,89.278229,69.530640,109.241882,164.149796,157.564865,60.312622,55.655094,179.981277,117.651878,67.660400,57.980637,38.744778,35.008827,-10.113864,74.523735,-105.570740,64.378578,-3.200494,-83.846977,-1.411953,-561.019470,0.000000,141.000000,-1.000000,,,,0.000000,4.000000,4.000000,4.000000,4.000000,4.000000,3.000000,4.000000,4.000000,4.000000,3.000000,4.000000,4.000000,4.000000,4.000000,4.000000,4.000000,4.000000,2.000000,4.000000,3.000000,4.000000,4.000000,4.000000,4.000000,4.000000,4.000000,4.000000,4.000000,4.000000,3.000000,4.000000,4.000000
1578523403.042332,30.000000,0.000000,18.091703,-46.458000,-744.544250,-19.425652,43.101959,-19.024702,40.033413,51.054462,114.021965,-7.312188,109.621895,86.112022,68.435471,107.594177,161.421539,148.176529,61.277950,56.112259,180.826950,108.303459,63.490173,56.897015,26.398338,16.512280,-23.437084,72.910751,-105.465172,58.673172,-3.710114,-85.814407,-2.436182,-560.971313,0.000000,185.000000,-1.000000,,,,0.000000,4.000000,4.000000,4.000000,4.000000,4.000000,3.000000,4.000000,4.000000,4.000000,3.000000,4.000000,4.000000,4.000000,4.000000,4.000000,4.000000,4.000000,2.000000,4.000000,3.000000,4.000000,4.000000,4.000000,4.000000,4.000000,4.000000,4.000000,4.000000,4.000000,3.000000,4.000000,4.000000
1578523403.050081,31.000000,0.000000,20.637714,-46.411545,-745.338196,-28.124174,38.956295,-19.005678,37.429276,48.952126,111.856659,-16.022823,79.255859,78.846428,69.392677,109.025047,152.029343,144.438599,68.908981,60.158710,200.646118,122.554131,71.631813,57.865757,18.679632,33.418846,-7.003390,81.555794,-105.359703,57.588860,-3.706404,-83.164497,8.335485,-559.897522,0.000000,202.000000,-1.000000,,,,0.000000,4.000000,4.000000,4.000000,4.000000,4.000000,3.000000,4.000000,4.000000,4.000000,3.000000,4.000000,4.000000,4.000000,4.000000,4.000000,4.000000,4.000000,2.000000,4.000000,3.000000,4.000000,4.000000,4.000000,4.000000,4.000000,4.000000,4.000000,4.000000,4.000000,3.000000,4.000000,4.000000
1578523403.057730,32.000000,0.000000,21.129896,-46.365131,-741.515930,-33.737076,35.840416,-18.986671,32.776463,48.390354,112.257622,-20.109365,79.689430,63.895786,69.323280,105.326279,122.646553,155.063400,72.429817,62.662655,216.855728,107.046959,73.098640,58.833534,26.353262,62.616196,19.157459,84.551155,-105.254349,57.531269,-3.189877,-82.055687,11.916893,-559.337585,8192.000000,0.000000,-1.000000,,,,0.000000,4.000000,4.000000,4.000000,4.000000,4.000000,3.000000,4.000000,4.000000,4.000000,3.000000,4.000000,4.000000,4.000000,4.000000,4.000000,4.000000,4.000000,2.000000,4.000000,3.000000,4.000000,4.000000,4.000000,4.000000,4.000000,4.000000,4.000000,4.000000,4.000000,3.000000,4.000000,4.000000
1578523403.065479,33.000000,0.000000,22.647228,-46.318768,-739.748779,-27.036673,38.368675,-18.967686,31.718044,48.341965,113.683830,-13.935410,70.891785,60.242146,68.741135,101.118385,107.652107,161.574997,73.383026,64.651276,215.613235,107.452736,73.538361,61.338802,22.224344,49.733067,1.189584,83.440964,-105.149094,59.525021,-3.699508,-84.537735,11.904977,-558.778259,8192.000000,0.000000,-1.000000,,,,0.000000,4.000000,4.000000,4.000000,4.000000,4.000000,3.000000,4.000000,4.000000,4.000000,3.000000,4.000000,4.000000,4.000000,4.000000,4.000000,4.000000,4.000000,2.000000,4.000000,3.000000,4.000000,4.000000,4.000000,4.000000,4.000000,4.000000,4.000000,4.000000,4.000000,3.000000,4.000000,4.000000
1578523403.073128,34.000000,0.000000,28.778427,-46.272449,-737.983398,-23.419891,40.381592,-18.948717,33.224789,48.293621,112.544502,-13.408654,73.385002,79.156265,76.364700,111.786499,140.364975,160.900604,83.566055,71.766106,216.423264,140.165787,96.028931,69.995415,24.766222,28.144871,-23.939810,85.408806,-102.992661,73.311653,-3.182988,-85.478836,16.508455,-558.219482,8192.000000,0.000000,-1.000000,,,,0.000000,4.000000,4.000000,4.000000,4.000000,4.000000,3.000000,4.000000,4.000000,4.000000,3.000000,4.000000,4.000000,4.000000,4.000000,4.000000,4.000000,4.000000,2.000000,4.000000,3.000000,4.000000,4.000000,4.000000,4.000000,4.000000,4.000000,4.000000,4.000000,4.000000,3.000000,4.000000,4.000000
1578523403.080877,35.000000,0.000000,33.877853,-46.226177,-736.732544,-28.011856,39.315567,-18.929768,36.268486,48.245327,111.919136,-16.984989,106.132126,98.051468,90.647316,128.084961,173.045120,177.149963,94.251717,77.848190,237.232483,156.435883,117.984177,82.745934,52.946583,52.219292,8.904642,88.400322,-98.787102,92.212700,-1.128523,-84.367722,19.056049,-557.661255,8192.000000,0.000000,-1.000000,,,,0.000000,4.000000,4.000000,4.000000,4.000000,4.000000,3.000000,4.000000,4.000000,4.000000,3.000000,4.000000,4.000000,4.000000,4.000000,4.000000,4.000000,4.000000,2.000000,4.000000,3.000000,4.000000,4.000000,4.000000,4.000000,4.000000,4.000000,4.000000,4.000000,4.000000,3.000000,4.000000,4.000000
1578523403.088526,36.000000,0.000000,33.331154,-46.179951,-735.995850,-30.035128,39.276253,-18.910839,40.847603,48.709904,120.012344,3.031996,131.667023,98.979057,97.736153,132.059448,168.769501,198.511276,97.747208,80.334442,250.841400,137.305084,121.968758,85.740105,68.278252,83.449120,41.716251,89.850380,-96.637032,97.248688,0.411067,-84.796173,20.062635,-556.590759,8320.000000,0.000000,-1.000000,,,,0.000000,4.000000,4.000000,4.000000,4.000000,4.000000,3.000000,4.000000,4.000000,4.000000,3.000000,4.000000,4.000000,4.000000,4.000000,4.000000,4.000000,4.000000,2.000000,4.000000,3.000000,4.000000,4.000000,4.000000,4.000000,4.000000,4.000000,4.000000,4.000000,4.000000,3.000000,4.000000,4.000000
1578523403.096275,37.000000,0.000000,32.785004,-46.133770,-735.259827,-30.005093,39.749798,-18.891928,42.858036,48.148373,127.071823,22.516144,107.432793,95.803154,92.510216,129.363281,156.805862,190.620453,93.546898,76.664368,229.564911,152.552399,119.795509,76.423599,62.568951,62.852852,12.443765,90.786171,-96.540398,92.023239,0.410656,-84.711372,24.145136,-556.034180,8192.000000,0.000000,-1.000000,,,,0.000000,4.000000,4.000000,4.000000,4.000000,4.000000,3.000000,4.000000,4.000000,4.000000,3.000000,4.000000,4.000000,4.000000,4.000000,4.000000,4.000000,4.000000,2.000000,4.000000,3.000000,4.000000,4.000000,4.000000,4.000000,4.000000,4.000000,4.000000,4.000000,4.000000,3.000000,4.000000,4.000000
1578523403.103924,38.000000,0.000000,32.239399,-46.087635,-733.498962,-32.539188,39.710045,-18.873035,44.353642,48.613045,120.790901,5.570550,91.427917,98.784271,85.238213,125.644180,168.443939,162.224701,77.555916,64.792831,204.719971,155.476776,107.880844,69.680504,63.019199,30.482307,-19.876371,91.208206,-99.520782,84.751724,0.410245,-84.113846,25.146633,-557.016602,8192.000000,0.000000,-1.000000,,,,0.000000,4.000000,4.000000,4.000000,4.000000,4.000000,3.000000,4.000000,4.000000,4.000000,3.000000,4.000000,4.000000,4.000000,4.000000,4.000000,4.000000,4.000000,2.000000,4.000000,3.000000,4.000000,4.000000,4.000000,4.000000,4.000000,4.000000,4.000000,4.000000,4.000000,3.000000,4.000000,4.000000
1578523403.111673,39.000000,0.000000,29.643057,-46.041550,-730.201355,-32.506649,39.670338,-18.854162,49.950314,49.077251,112.977806,-12.896559,91.849312,96.121384,84.127335,117.313408,162.634460,148.216324,61.580925,55.497269,204.002426,123.013603,84.183220,66.021080,57.827976,37.118492,-7.035982,90.091354,-103.523827,73.384918,0.409835,-87.619476,23.070204,-554.408325,7936.000000,0.000000,-1.000000,,,,0.000000,4.000000,4.000000,4.000000,4.000000,4.000000,3.000000,4.000000,4.000000,4.000000,3.000000,4.000000,4.000000,4.000000,4.000000,4.000000,4.000000,4.000000,2.000000,4.000000,3.000000,4.000000,4.000000,4.000000,4.000000,4.000000,4.000000,4.000000,4.000000,4.000000,3.000000,4.000000,4.000000
1578523403.119322,40.000000,0.000000,28.587772,-45.995506,-730.496765,-35.551067,38.092205,-18.835308,48.874722,45.951252,113.377647,-11.858021,90.731827,78.589363,83.530388,104.888397,130.164139,150.119385,59.468060,55.441769,205.849701,90.582893,72.304161,57.237114,32.641945,66.312141,16.560797,83.847420,-104.445938,64.593590,0.409425,-91.634415,20.995852,-554.366699,8192.000000,0.000000,-1.000000,,,,0.000000,4.000000,4.000000,4.000000,4.000000,4.000000,3.000000,4.000000,4.000000,4.000000,3.000000,4.000000,4.000000,4.000000,4.000000,4.000000,4.000000,4.000000,2.000000,4.000000,3.000000,4.000000,4.000000,4.000000,4.000000,4.000000,4.000000,4.000000,4.000000,4.000000,3.000000,4.000000,4.000000
1578523403.127071,41.000000,0.000000,28.559185,-45.949512,-732.843201,-43.720642,36.002831,-18.816473,40.107899,41.289917,107.110420,-22.615395,89.102631,63.126163,77.805832,98.629662,109.521149,146.892349,61.459873,54.360687,195.900269,115.107697,73.770317,53.077312,11.583660,65.733009,16.544237,77.096909,-103.828674,63.503353,0.409016,-92.055603,16.872292,-563.043152,8192.000000,0.000000,-1.000000,,,,0.000000,4.000000,4.000000,4.000000,4.000000,4.000000,3.000000,4.000000,4.000000,4.000000,3.000000,4.000000,4.000000,4.000000,4.000000,4.000000,4.000000,4.000000,2.000000,4.000000,3.000000,4.000000,4.000000,4.000000,4.000000,4.000000,4.000000,4.000000,4.000000,4.000000,3.000000,4.000000,4.000000
1578523403.134720,42.000000,0.000000,28.530624,-45.903561,-731.597534,-48.292309,35.454006,-18.797657,36.478046,40.735806,97.259720,-29.772266,78.757118,71.268166,71.574181,102.120781,137.103943,141.104431,59.859951,50.716583,189.550522,143.197723,74.209373,56.101158,13.110538,44.128815,4.732821,74.455704,-104.237663,63.952671,0.408607,-91.450729,13.778497,-566.069824,8192.000000,0.000000,-1.000000,,,,0.000000,4.000000,4.000000,4.000000,4.000000,4.000000,3.000000,4.000000,4.000000,4.000000,3.000000,4.000000,4.000000,4.000000,4.000000,4.000000,4.000000,4.000000,2.000000,4.000000,3.000000,4.000000,4.000000,4.000000,4.000000,4.000000,4.000000,4.000000,4.000000,4.000000,3.000000,4.000000,4.000000
1578523403.142569,43.000000,0.000000,28.502094,-45.857658,-730.865967,-47.731194,35.931374,-18.778860,35.415928,41.207890,97.675285,-11.280955,80.216820,86.581512,72.015427,106.121223,159.018112,148.142807,60.825733,55.281250,191.412247,145.618622,74.647980,55.532238,23.353838,26.648790,-16.297554,74.894073,-104.133430,63.375896,-1.130263,-91.872101,14.277538,-557.298645,8192.000000,0.000000,-1.000000,,,,0.000000,4.000000,4.000000,4.000000,4.000000,4.000000,3.000000,4.000000,4.000000,4.000000,3.000000,4.000000,4.000000,4.000000,4.000000,4.000000,4.000000,4.000000,2.000000,4.000000,3.000000,4.000000,4.000000,4.000000,4.000000,4.000000,4.000000,4.000000,4.000000,4.000000,3.000000,4.000000,4.000000
1578523403.150318,44.000000,0.000000,28.473593,-45.811802,-731.160706,-47.170643,35.382622,-18.760080,34.867691,40.141041,93.987862,-3.064546,99.623787,89.059029,75.020332,106.015099,149.628326,154.148514,63.841831,58.302895,192.246475,143.934540,76.624619,53.425423,27.433048,21.493937,-28.076128,75.332001,-104.029297,64.338165,-3.180415,-91.780228,13.750441,-551.100281,8192.000000,0.000000,-1.000000,,,,0.000000,4.000000,4.000000,4.000000,4.000000,4.000000,3.000000,4.000000,4.000000,4.000000,3.000000,4.000000,4.000000,4.000000,4.000000,4.000000,4.000000,4.000000,2.000000,4.000000,3.000000,4.000000,4.000000,4.000000,4.000000,4.000000,4.000000,4.000000,4.000000,4.000000,3.000000,4.000000,4.000000
1578523403.158167,45.000000,0.000000,28.445118,-45.765987,-725.814148,-47.636292,35.860058,-18.741320,39.961029,41.126541,81.586182,-17.420456,82.601082,89.482796,75.970955,107.960365,155.119720,142.199493,64.803627,51.065102,190.515778,146.354706,78.599274,56.448921,26.892794,38.395519,-7.022410,73.718201,-103.412445,63.761005,-3.690055,-91.688446,13.736690,-552.600464,8192.000000,0.000000,-1.000000,,,,0.000000,4.000000,4.000000,4.000000,4.000000,4.000000,3.000000,4.000000,4.000000,4.000000,3.000000,4.000000,4.000000,4.000000,4.000000,4.000000,4.000000,4.000000,2.000000,4.000000,3.000000,4.000000,4.000000,4.000000,4.000000,4.000000,4.000000,4.000000,4.000000,4.000000,3.000000,4.000000,4.000000
1578523403.165916,46.000000,0.000000,28.416674,-45.720222,-718.421692,-47.588657,35.824200,-18.722580,35.818504,41.085415,77.402031,-25.608164,50.210789,84.777924,75.894981,106.313942,164.195374,132.313705,64.738831,46.911472,190.838074,138.003220,78.520676,57.418114,28.917183,57.844303,14.523074,75.182945,-103.821854,64.210060,-3.173544,-91.083939,16.799877,-553.073547,8192.000000,0.000000,-1.000000,,,,0.000000,4.000000,4.000000,4.000000,4.000000,4.000000,3.000000,4.000000,4.000000,4.000000,3.000000,4.000000,4.000000,4.000000,4.000000,4.000000,4.000000,4.000000,2.000000,4.000000,3.000000,4.000000,4.000000,4.000000,4.000000,4.000000,4.000000,4.000000,4.000000,4.000000,3.000000,4.000000,4.000000
1578523403.173765,47.000000,0.000000,28.388256,-45.674503,-716.677612,-46.515427,34.249912,-18.703857,17.833965,34.890484,83.991302,-24.044094,70.673401,68.282890,75.306267,92.874298,131.723480,143.976273,62.622807,51.992767,194.236984,124.531891,76.390869,57.360695,29.401087,44.965946,-4.978629,84.851357,-103.718033,70.299698,-3.683192,-91.505676,20.372820,-550.981995,8192.000000,0.000000,-1.000000,,,,0.000000,4.000000,4.000000,4.000000,4.000000,4.000000,3.000000,4.000000,4.000000,4.000000,3.000000,4.000000,4.000000,4.000000,4.000000,4.000000,4.000000,4.000000,2.000000,4.000000,3.000000,4.000000,4.000000,4.000000,4.000000,4.000000,4.000000,4.000000,4.000000,4.000000,3.000000,4.000000,4.000000
1578523403.181514,48.000000,0.000000,28.359869,-45.628826,-715.960938,-45.956093,32.164383,-18.685152,15.252029,29.727388,87.497047,-19.917486,102.397598,64.112045,75.743782,93.807068,108.514839,157.678436,68.714027,56.043339,196.094025,130.561203,83.493965,61.405895,27.320404,33.638927,-22.922369,95.022911,-100.537392,75.870422,-3.679508,-91.414169,24.967833,-546.328430,8192.000000,0.000000,-1.000000,,,,0.000000,4.000000,4.000000,4.000000,4.000000,4.000000,3.000000,4.000000,4.000000,4.000000,3.000000,4.000000,4.000000,4.000000,4.000000,4.000000,4.000000,4.000000,2.000000,4.000000,3.000000,4.000000,4.000000,4.000000,4.000000,4.000000,4.000000,4.000000,4.000000,4.000000,3.000000,4.000000,4.000000
1578523403.189363,49.000000,0.000000,28.331509,-45.583199,-715.244995,-49.499878,31.619396,-18.666468,31.134212,31.748943,85.871094,-15.282184,86.910583,85.073570,78.232140,113.713257,141.226837,159.059219,80.953011,54.961655,193.333832,147.353714,97.256630,64.934235,36.523853,56.169392,-1.873805,93.389427,-96.334290,75.794556,-3.163008,-87.733009,30.583889,-546.294922,8192.000000,0.000000,-1.000000,,,,0.000000,4.000000,4.000000,4.000000,4.000000,4.000000,3.000000,4.000000,4.000000,4.000000,3.000000,4.000000,4.000000,4.000000,4.000000,4.000000,4.000000,4.000000,2.000000,4.000000,3.000000,4.000000,4.000000,4.000000,4.000000,4.000000,4.000000,4.000000,4.000000,4.000000,3.000000,4.000000,4.000000
1578523403.197112,50.000000,0.000000,28.303177,-45.537617,-717.093872,-54.578583,32.100597,-18.647800,37.769745,33.768475,85.272400,-23.472029,75.028801,94.219269,76.615448,114.625183,157.495865,155.823242,79.846413,54.906693,194.678955,145.667908,96.646553,64.869301,48.282200,69.959373,17.615248,88.680656,-95.212311,74.693123,-3.159845,-84.568352,32.604588,-547.287109,8064.000000,0.000000,-1.000000,,,,0.000000,4.000000,4.000000,4.000000,4.000000,4.000000,3.000000,4.000000,4.000000,4.000000,3.000000,4.000000,4.000000,4.000000,4.000000,4.000000,4.000000,4.000000,2.000000,4.000000,3.000000,4.000000,4.000000,4.000000,4.000000,4.000000,4.000000,4.000000,4.000000,4.000000,3.000000,4.000000,4.000000
1578523403.204961,51.000000,0.000000,28.274874,-45.492077,-710.222900,-54.011185,32.068497,-18.629154,34.142231,33.221886,89.802513,-24.474197,95.979416,81.817360,71.410629,98.613121,125.030678,154.128952,69.510155,55.364605,202.176590,131.676086,86.806313,64.291611,43.105713,60.658649,15.033531,92.181717,-95.629921,75.644066,-3.156685,-82.945320,35.648907,-534.432129,8064.000000,0.000000,-1.000000,,,,0.000000,4.000000,4.000000,4.000000,4.000000,4.000000,3.000000,4.000000,4.000000,4.000000,3.000000,4.000000,4.000000,4.000000,4.000000,4.000000,4.000000,4.000000,2.000000,4.000000,3.000000,4.000000,4.000000,4.000000,4.000000,4.000000,4.000000,4.000000,4.000000,4.000000,3.000000,4.000000,4.000000
1578523403.212710,52.000000,0.000000,28.759420,-45.446587,-702.333191,-54.469994,31.523607,-18.610523,35.133732,33.188663,93.815277,-3.936903,109.216766,78.145798,71.852036,99.027328,121.828728,154.487656,66.363724,55.309242,200.435944,130.518768,84.668228,64.227318,34.857479,57.008247,15.018497,91.576714,-95.021469,75.055603,-3.153529,-80.298279,37.664539,-522.615662,8192.000000,0.000000,-1.000000,,,,0.000000,4.000000,4.000000,4.000000,4.000000,4.000000,3.000000,4.000000,4.000000,4.000000,3.000000,4.000000,4.000000,4.000000,4.000000,4.000000,4.000000,4.000000,2.000000,4.000000,3.000000,4.000000,4.000000,4.000000,4.000000,4.000000,4.000000,4.000000,4.000000,4.000000,3.000000,4.000000,4.000000
1578523403.220559,53.000000,0.000000,28.730659,-45.401138,-713.425720,-61.595013,32.004906,-18.591913,36.637058,32.129837,88.593254,-0.856044,97.825500,85.759956,74.857109,107.646255,154.527405,153.820343,68.348640,54.741112,188.440643,141.157471,81.506638,64.163094,35.335442,44.643543,3.208607,80.203087,-95.952087,74.980545,-3.150375,-81.756439,29.421747,-534.400696,8064.000000,0.000000,-1.000000,,,,0.000000,4.000000,4.000000,4.000000,4.000000,4.000000,3.000000,4.000000,4.000000,4.000000,3.000000,4.000000,4.000000,4.000000,4.000000,4.000000,4.000000,4.000000,2.000000,4.000000,3.000000,4.000000,4.000000,4.000000,4.000000,4.000000,4.000000,4.000000,4.000000,4.000000,3.000000,4.000000,4.000000
1578523403.228308,54.000000,0.000000,28.189110,-45.355740,-721.943054,-64.097519,31.972900,-18.573322,36.087601,30.046423,82.863632,-24.957752,84.394341,85.161377,74.782249,101.897583,153.860062,148.538315,68.280296,54.173550,184.662460,151.785553,78.348206,64.098930,33.761646,22.034800,-21.409986,73.969040,-98.420242,74.905563,-3.147225,-85.777245,27.341043,-543.097107,8064.000000,0.000000,-1.000000,,,,0.000000,4.000000,4.000000,4.000000,4.000000,4.000000,3.000000,4.000000,4.000000,4.000000,3.000000,4.000000,4.000000,4.000000,4.000000,4.000000,4.000000,4.000000,2.000000,4.000000,3.000000,4.000000,4.000000,4.000000,4.000000,4.000000,4.000000,4.000000,4.000000,4.000000,3.000000,4.000000,4.000000
1578523403.236057,55.000000,0.000000,28.673740,-45.310383,-706.349365,-56.341114,31.940928,-18.554749,35.538692,30.016376,84.832054,-33.137920,88.412514,79.435188,77.271568,96.667480,121.398514,153.005157,69.750473,56.683479,196.785492,151.120941,86.474983,64.034828,33.215065,35.346096,-14.721910,77.997635,-99.347466,74.830658,-3.144078,-84.153008,40.647034,-532.810425,7936.000000,0.000000,-1.000000,,,,0.000000,4.000000,4.000000,4.000000,4.000000,4.000000,3.000000,4.000000,4.000000,4.000000,3.000000,4.000000,4.000000,4.000000,4.000000,4.000000,4.000000,4.000000,2.000000,4.000000,3.000000,4.000000,4.000000,4.000000,4.000000,4.000000,4.000000,4.000000,4.000000,4.000000,3.000000,4.000000,4.000000
1578523403.243806,56.000000,0.000000,28.132246,-45.265072,-693.848145,-52.182209,31.908987,-18.536194,35.503155,29.473539,86.285683,-23.361195,96.016403,84.483963,85.399429,102.211838,131.533524,169.262421,71.219185,61.242180,208.896393,138.662125,95.619278,63.970795,39.848515,60.951778,8.369736,78.945274,-98.735291,74.755829,-3.140934,-83.043213,44.708954,-527.662231,8192.000000,0.000000,-1.000000,,,,0.000000,4.000000,4.000000,4.000000,4.000000,4.000000,3.000000,4.000000,4.000000,4.000000,3.000000,4.000000,4.000000,4.000000,4.000000,4.000000,4.000000,4.000000,2.000000,4.000000,3.000000,4.000000,4.000000,4.000000,4.000000,4.000000,4.000000,4.000000,4.000000,4.000000,3.000000,4.000000,4.000000
1578523403.251655,57.000000,0.000000,26.052832,-45.219807,-695.718384,-55.206947,31.877077,-18.517658,36.493294,29.956886,85.686577,-17.696808,83.099876,93.117424,86.852493,106.725006,164.222504,170.118790,71.660789,62.206581,205.610580,132.882446,96.036476,64.419647,43.911232,47.557491,-0.356583,75.789406,-98.636559,74.681076,-3.137793,-86.037094,35.946293,-531.237122,8064.000000,0.000000,-1.000000,,,,0.000000,4.000000,4.000000,4.000000,4.000000,4.000000,3.000000,4.000000,4.000000,4.000000,3.000000,4.000000,4.000000,4.000000,4.000000,4.000000,4.000000,4.000000,2.000000,4.000000,3.000000,4.000000,4.000000,4.000000,4.000000,4.000000,4.000000,4.000000,4.000000,4.000000,3.000000,4.000000,4.000000
1578523403.259404,58.000000,0.000000,24.488317,-45.174587,-696.048279,-57.715843,32.358021,-18.499140,33.379875,33.003853,86.626534,-14.602188,68.144981,90.973030,81.637436,106.105461,149.699310,153.538422,71.589127,62.144375,194.122910,136.852127,95.940445,62.816765,44.380138,22.894550,-17.279303,75.200798,-98.537926,75.119217,-3.134655,-83.899773,35.397530,-530.705872,8192.000000,0.000000,-1.000000,,,,0.000000,4.000000,4.000000,4.000000,4.000000,4.000000,3.000000,4.000000,4.000000,4.000000,3.000000,4.000000,4.000000,4.000000,4.000000,4.000000,4.000000,4.000000,2.000000,4.000000,3.000000,4.000000,4.000000,4.000000,4.000000,4.000000,4.000000,4.000000,4.000000,4.000000,3.000000,4.000000,4.000000
1578523403.267054,59.000000,0.000000,24.463829,-45.129414,-695.352234,-62.786335,30.787201,-18.480640,26.167009,30.406746,79.873238,-22.792713,70.640938,82.164108,78.478874,103.948074,117.241913,144.154114,65.876511,63.107868,188.800583,145.946045,92.767578,60.702663,42.797298,15.179347,-19.826126,73.074318,-100.490669,75.044098,-3.131520,-82.790237,35.874950,-533.252075,8064.000000,0.000000,-1.000000,,,,0.000000,4.000000,4.000000,4.000000,4.000000,4.000000,3.000000,4.000000,4.000000,4.000000,3.000000,4.000000,4.000000,4.000000,4.000000,4.000000,4.000000,4.000000,2.000000,4.000000,3.000000,4.000000,4.000000,4.000000,4.000000,4.000000,4.000000,4.000000,4.000000,4.000000,3.000000,4.000000,4.000000
1578523403.274803,60.000000,0.000000,22.900904,-45.084282,-696.195374,-68.877396,28.192312,-18.462160,23.576740,21.145571,69.536957,-37.641716,58.775429,80.543480,77.374748,100.767204,133.022110,142.471497,60.169609,58.429379,185.534866,160.671890,86.008148,59.616322,41.216038,17.215450,-19.806301,67.873039,-102.441460,74.456230,-3.128389,-89.886932,29.172409,-535.282959,8064.000000,0.000000,-1.000000,,,,0.000000,4.000000,4.000000,4.000000,4.000000,4.000000,3.000000,4.000000,4.000000,4.000000,3.000000,4.000000,4.000000,4.000000,4.000000,4.000000,4.000000,4.000000,2.000000,4.000000,3.000000,4.000000,4.000000,4.000000,4.000000,4.000000,4.000000,4.000000,4.000000,4.000000,3.000000,4.000000,4.000000
1578523403.282452,61.000000,0.000000,20.826721,-45.039200,-692.935059,-70.859802,27.651299,-18.443697,24.578804,18.560322,68.441780,-29.911766,42.306396,86.616783,75.246094,98.615158,159.042938,137.713638,59.596619,50.678638,181.246765,149.741989,83.870857,58.531063,47.841492,44.377724,-0.812135,66.779526,-101.826195,74.381775,-3.125260,-92.361145,29.656057,-524.491272,8192.000000,0.000000,-1.000000,,,,0.000000,4.000000,4.000000,4.000000,4.000000,4.000000,3.000000,4.000000,4.000000,4.000000,3.000000,4.000000,4.000000,4.000000,4.000000,4.000000,4.000000,4.000000,2.000000,4.000000,3.000000,4.000000,4.000000,4.000000,4.000000,4.000000,4.000000,4.000000,4.000000,4.000000,3.000000,4.000000,4.000000
1578523403.290201,62.000000,0.000000,20.805895,-44.994160,-689.678040,-70.788940,28.136467,-18.425255,24.554226,21.618685,75.040001,-15.522881,67.392296,89.094269,73.632385,98.003723,129.653122,138.088745,57.485741,52.679245,186.706543,117.284554,78.658783,56.421249,47.280827,70.487190,20.727139,67.738380,-103.775650,70.717651,-3.122135,-87.140579,37.318710,-517.812927,8064.000000,0.000000,-1.000000,,,,0.000000,4.000000,4.000000,4.000000,4.000000,4.000000,3.000000,4.000000,4.000000,4.000000,3.000000,4.000000,4.000000,4.000000,4.000000,4.000000,4.000000,4.000000,2.000000,4.000000,3.000000,4.000000,4.000000,4.000000,4.000000,4.000000,4.000000,4.000000,4.000000,4.000000,3.000000,4.000000,4.000000
1578523403.297850,63.000000,0.000000,21.297909,-44.949165,-687.962708,-70.205330,27.595510,-18.406828,23.504030,22.109888,75.990601,-20.122742,93.991570,86.953888,72.533112,98.418541,97.215775,141.540405,52.300049,55.190666,191.135223,99.731369,69.862175,54.313549,21.079700,38.109013,-9.549999,65.619362,-105.723160,61.416161,-3.119013,-87.566261,36.255749,-522.423279,8064.000000,0.000000,-1.000000,,,,0.000000,4.000000,4.000000,4.000000,4.000000,4.000000,3.000000,4.000000,4.000000,4.000000,3.000000,4.000000,4.000000,4.000000,4.000000,4.000000,4.000000,4.000000,2.000000,4.000000,3.000000,4.000000,4.000000,4.000000,4.000000,4.000000,4.000000,4.000000,4.000000,4.000000,3.000000,4.000000,4.000000
1578523403.305599,64.000000,0.000000,20.763790,-44.904217,-686.761902,-70.647942,28.080736,-18.388422,24.506166,23.113419,70.273590,-27.282106,68.256554,87.379761,70.409302,97.807297,117.118561,137.809113,51.222107,46.417526,178.123566,132.452148,71.843590,52.720772,5.161185,5.763209,-41.848141,60.425537,-105.104614,55.200901,-3.628714,-90.042793,24.424622,-523.952148,0.000000,183.000000,-1.000000,,,,0.000000,4.000000,4.000000,4.000000,4.000000,4.000000,3.000000,4.000000,4.000000,4.000000,3.000000,4.000000,4.000000,4.000000,4.000000,4.000000,4.000000,4.000000,2.000000,4.000000,3.000000,4.000000,4.000000,4.000000,4.000000,4.000000,4.000000,4.000000,4.000000,4.000000,3.000000,4.000000,4.000000
1578523403.313248,65.000000,0.000000,21.255848,-44.346493,-697.357239,-82.372169,28.565475,-18.370033,24.481661,21.039022,60.972546,-28.793285,40.495987,88.318016,70.338890,98.222313,140.591187,134.081558,52.709347,39.704445,170.253143,155.909439,78.951233,52.155231,23.104742,19.603600,-32.062702,50.621525,-106.537971,54.632877,-5.676368,-90.465576,10.041223,-528.556396,0.000000,178.000000,-1.000000,,,,0.000000,4.000000,4.000000,4.000000,4.000000,4.000000,4.000000,4.000000,4.000000,4.000000,4.000000,4.000000,4.000000,4.000000,4.000000,4.000000,4.000000,4.000000,2.000000,4.000000,3.000000,4.000000,4.000000,4.000000,4.000000,4.000000,4.000000,4.000000,4.000000,4.000000,3.000000,4.000000,4.000000
1578523403.320998,66.000000,0.000000,20.721771,-44.814964,-706.916260,-100.238518,24.434345,-18.351664,22.918718,10.761574,53.732082,-36.456799,61.993954,84.127136,70.781372,98.124092,119.937767,140.614151,52.143818,43.767303,181.364944,143.445847,79.897926,52.615894,38.979073,46.763485,-12.543461,49.545261,-104.380150,55.603886,-7.209153,-90.375107,15.159387,-530.591980,0.000000,162.000000,-1.000000,,,,0.000000,4.000000,4.000000,4.000000,4.000000,4.000000,4.000000,4.000000,4.000000,4.000000,4.000000,4.000000,4.000000,4.000000,4.000000,4.000000,4.000000,4.000000,2.000000,4.000000,3.000000,4.000000,4.000000,4.000000,4.000000,4.000000,4.000000,4.000000,4.000000,4.000000,3.000000,4.000000,4.000000
1578523403.328647,67.000000,0.000000,19.162588,-44.770149,-690.311890,-107.830582,20.307348,-18.333311,20.844517,7.673889,51.627071,-42.061371,86.547340,79.940445,70.710587,95.974686,101.869118,148.678665,52.091675,47.826099,189.388702,139.199829,79.818024,52.563282,35.350349,47.229542,-14.069380,76.162384,-90.429619,55.548283,-7.201944,-81.566788,47.964741,-506.471619,0.000000,229.000000,-1.000000,,,,0.000000,4.000000,4.000000,4.000000,4.000000,4.000000,4.000000,4.000000,4.000000,4.000000,4.000000,4.000000,4.000000,4.000000,4.000000,4.000000,4.000000,4.000000,2.000000,4.000000,3.000000,4.000000,4.000000,4.000000,4.000000,4.000000,4.000000,4.000000,4.000000,4.000000,3.000000,4.000000,4.000000
1578523403.336396,68.000000,0.000000,17.604963,-42.674099,-668.083130,-105.671471,20.287041,-18.827799,20.310852,15.871344,53.113903,-40.993668,71.076180,80.886147,70.639877,93.827423,119.203140,142.888962,52.039581,47.778275,188.173676,143.163193,78.199745,52.510715,33.263718,65.643852,4.406229,100.188782,-78.031494,54.979912,-6.681921,-72.767265,77.660362,-481.862579,0.000000,204.000000,-1.000000,,,,0.000000,4.000000,4.000000,4.000000,4.000000,4.000000,4.000000,4.000000,4.000000,4.000000,4.000000,4.000000,4.000000,4.000000,4.000000,4.000000,4.000000,4.000000,2.000000,4.000000,3.000000,4.000000,4.000000,4.000000,4.000000,4.000000,4.000000,4.000000,4.000000,4.000000,3.000000,4.000000,4.000000
1578523403.344045,69.000000,0.000000,17.074537,-40.580143,-669.979126,-108.642723,20.779573,-18.296150,20.803362,18.932394,52.035149,-40.439854,53.056385,83.882187,70.056419,94.246422,137.032654,130.438370,53.526005,47.217674,186.959854,141.994400,81.711288,52.458206,35.794556,79.937180,17.222336,88.293724,-82.568848,55.437756,-4.623957,-74.745781,68.351936,-488.560211,0.000000,206.000000,-1.000000,,,,0.000000,4.000000,4.000000,4.000000,4.000000,4.000000,4.000000,4.000000,4.000000,4.000000,4.000000,4.000000,4.000000,4.000000,4.000000,4.000000,4.000000,4.000000,2.000000,4.000000,3.000000,4.000000,4.000000,4.000000,4.000000,4.000000,4.000000,4.000000,4.000000,4.000000,3.000000,4.000000,4.000000
1578523403.351794,70.000000,0.000000,18.083105,-40.539562,-678.027100,-117.252029,20.758795,-17.765034,20.269737,15.323719,50.957474,-39.373772,64.798203,82.772659,70.499184,94.152176,122.536652,130.820755,56.036583,46.144817,187.285721,145.954971,92.911629,52.405746,35.758762,48.575191,-9.461554,78.461838,-89.152946,62.561802,-3.080872,-77.235138,58.539993,-494.738312,0.000000,232.000000,-1.000000,,,,0.000000,4.000000,4.000000,4.000000,4.000000,4.000000,4.000000,4.000000,4.000000,4.000000,4.000000,4.000000,4.000000,4.000000,4.000000,4.000000,4.000000,4.000000,2.000000,4.000000,3.000000,4.000000,4.000000,4.000000,4.000000,4.000000,4.000000,4.000000,4.000000,4.000000,3.000000,4.000000,4.000000
1578523403.359443,71.000000,0.000000,17.552200,-41.011845,-672.733704,-117.134773,20.225214,-20.311371,20.249468,14.795575,58.086002,-41.385681,87.297508,78.074501,70.428680,91.493919,96.773087,142.997635,55.980545,53.278160,192.226639,150.424393,95.895645,52.353344,37.261467,42.372772,-12.529016,94.793633,-87.012512,70.191551,-3.077791,-74.593803,73.353249,-480.397430,0.000000,236.000000,-1.000000,,,,0.000000,4.000000,4.000000,4.000000,4.000000,4.000000,4.000000,4.000000,4.000000,4.000000,4.000000,4.000000,4.000000,4.000000,4.000000,4.000000,4.000000,4.000000,2.000000,4.000000,3.000000,4.000000,4.000000,4.000000,4.000000,4.000000,4.000000,4.000000,4.000000,4.000000,3.000000,4.000000,4.000000
1578523403.367192,72.000000,0.000000,12.406444,-40.458012,-668.471252,-110.350975,20.717810,-21.316702,20.742039,15.293600,66.745865,-40.318653,94.902519,80.047714,68.819794,89.863960,106.419907,146.444382,55.924564,61.430008,197.675430,153.863708,90.158722,52.300987,39.275486,75.150909,20.304026,97.775764,-86.925499,68.070076,-3.074713,-78.108955,78.920921,-475.814453,0.000000,202.000000,-1.000000,,,,0.000000,4.000000,4.000000,4.000000,4.000000,4.000000,4.000000,4.000000,4.000000,4.000000,4.000000,4.000000,4.000000,4.000000,4.000000,4.000000,4.000000,4.000000,2.000000,4.000000,3.000000,4.000000,4.000000,4.000000,4.000000,4.000000,4.000000,4.000000,4.000000,4.000000,3.000000,4.000000,4.000000
1578523403.374841,73.000000,0.000000,6.240191,-40.417553,-674.469421,-112.804726,21.209913,-19.244102,20.721296,15.278306,62.576557,-29.509104,78.910179,89.198433,66.699692,90.286919,139.134003,132.451782,56.381458,51.112167,184.144424,160.376511,92.632668,52.761509,38.723389,71.486015,21.822184,83.319016,-90.428314,62.873802,-3.071638,-82.133408,67.559952,-488.159180,0.000000,180.000000,-1.000000,,,,0.000000,4.000000,4.000000,4.000000,4.000000,4.000000,4.000000,4.000000,4.000000,4.000000,4.000000,4.000000,4.000000,4.000000,4.000000,4.000000,4.000000,4.000000,2.000000,4.000000,3.000000,4.000000,4.000000,4.000000,4.000000,4.000000,4.000000,4.000000,4.000000,4.000000,3.000000,4.000000,4.000000
1578523403.382690,74.000000,0.000000,6.233951,-40.889957,-680.461609,-119.871407,19.650242,-21.276140,20.700575,16.288670,54.821671,-31.018057,52.164600,93.724617,66.632996,90.709450,134.379486,120.524452,52.222515,35.676441,163.447464,147.395630,85.873367,52.708748,38.684666,39.106838,-8.456049,81.697235,-90.850708,63.323746,-3.068567,-82.051277,65.953926,-491.773560,0.000000,215.000000,-1.000000,,,,0.000000,4.000000,4.000000,4.000000,4.000000,4.000000,4.000000,4.000000,4.000000,4.000000,4.000000,4.000000,4.000000,4.000000,4.000000,4.000000,4.000000,4.000000,2.000000,4.000000,3.000000,4.000000,4.000000,4.000000,4.000000,4.000000,4.000000,4.000000,4.000000,4.000000,3.000000,4.000000,4.000000
1578523403.390439,75.000000,0.000000,6.740537,-40.849068,-682.345276,-119.751541,17.066488,-25.870249,20.679874,10.118534,53.228390,-50.987038,49.035515,89.528328,66.566360,89.593102,101.937408,122.968033,49.093369,36.153584,164.309662,119.555923,68.351593,52.143219,39.158802,31.888243,-21.780926,83.153999,-89.221397,62.747604,-3.065498,-84.020508,67.426437,-489.230530,0.000000,210.000000,-1.000000,,,,0.000000,4.000000,4.000000,4.000000,4.000000,4.000000,4.000000,4.000000,4.000000,4.000000,4.000000,4.000000,4.000000,4.000000,4.000000,4.000000,4.000000,4.000000,2.000000,4.000000,3.000000,4.000000,4.000000,4.000000,4.000000,4.000000,4.000000,4.000000,4.000000,4.000000,3.000000,4.000000,4.000000
1578523403.398288,76.000000,0.000000,6.220976,-40.808216,-683.201416,-121.170250,16.536602,-26.357199,20.146374,3.441749,50.611057,-56.064255,66.422379,90.464439,66.499794,89.503510,113.117523,126.434807,50.582737,39.707176,176.965851,123.538933,70.847343,52.091076,35.529900,34.420460,-20.733503,76.917000,-90.670639,61.659214,-3.062433,-83.936485,65.307724,-490.792572,0.000000,187.000000,-1.000000,,,,0.000000,4.000000,4.000000,4.000000,4.000000,4.000000,4.000000,4.000000,4.000000,4.000000,4.000000,4.000000,4.000000,4.000000,4.000000,4.000000,4.000000,4.000000,2.000000,4.000000,3.000000,4.000000,4.000000,4.000000,4.000000,4.000000,4.000000,4.000000,4.000000,4.000000,3.000000,4.000000,4.000000
1578523403.406037,77.000000,0.000000,6.727576,-40.767410,-683.031006,-123.100357,17.032885,-25.305201,20.126228,10.617794,47.996346,-40.110756,68.920059,98.579109,66.946114,90.952469,145.824921,122.205811,50.532154,37.616184,178.327347,151.107697,82.058548,52.038982,29.853344,39.514244,-7.379437,82.993927,-90.067146,65.700119,-3.059370,-79.237167,72.421906,-485.173584,0.000000,180.000000,-1.000000,,,,0.000000,4.000000,4.000000,4.000000,4.000000,4.000000,4.000000,4.000000,4.000000,4.000000,4.000000,4.000000,4.000000,4.000000,4.000000,4.000000,4.000000,4.000000,2.000000,4.000000,3.000000,4.000000,4.000000,4.000000,4.000000,4.000000,4.000000,4.000000,4.000000,4.000000,3.000000,4.000000,4.000000
1578523403.413886,78.000000,0.000000,5.182386,-40.726643,-679.271057,-117.849052,17.015852,-25.279896,20.618923,18.812305,49.486809,-36.480904,62.184467,96.429245,63.802242,84.707672,127.217552,125.160530,47.917519,42.706776,176.610565,154.546341,76.848289,47.371559,29.823490,65.115753,15.192045,87.526314,-88.951439,64.095955,-3.056311,-77.106644,74.913589,-475.970459,0.000000,194.000000,-1.000000,,,,0.000000,4.000000,4.000000,4.000000,4.000000,4.000000,4.000000,4.000000,4.000000,4.000000,4.000000,4.000000,4.000000,4.000000,4.000000,4.000000,4.000000,4.000000,2.000000,4.000000,3.000000,4.000000,4.000000,4.000000,4.000000,4.000000,4.000000,4.000000,4.000000,4.000000,3.000000,4.000000,4.000000
1578523403.421635,79.000000,0.000000,3.125922,-40.685913,-677.053345,-117.731201,16.998837,-25.767437,19.572662,12.126825,44.821938,-44.649548,64.686386,82.486664,56.558956,72.828087,94.782646,133.753311,47.356781,45.228168,178.998062,135.417435,70.104774,40.144703,31.332129,57.871151,3.381981,71.541359,-93.477875,54.288273,-3.053255,-78.055176,58.428417,-480.109863,0.000000,202.000000,-1.000000,,,,0.000000,4.000000,4.000000,4.000000,4.000000,4.000000,4.000000,4.000000,4.000000,4.000000,4.000000,4.000000,4.000000,4.000000,4.000000,4.000000,4.000000,4.000000,2.000000,4.000000,3.000000,4.000000,4.000000,4.000000,4.000000,4.000000,4.000000,4.000000,4.000000,4.000000,3.000000,4.000000,4.000000
1578523403.429484,80.000000,0.000000,2.609976,-40.645229,-678.427551,-127.869881,16.469017,-25.741669,15.450525,2.883929,37.597630,-44.092079,59.493496,82.404175,52.399830,72.755264,98.277603,132.081100,47.309425,37.490635,176.254959,117.846115,69.009026,39.591736,24.634130,25.505589,-24.313709,65.828789,-96.974136,54.746803,-3.050201,-77.464302,51.703320,-486.296417,0.000000,177.000000,-1.000000,,,,0.000000,4.000000,4.000000,4.000000,4.000000,4.000000,4.000000,4.000000,4.000000,4.000000,4.000000,4.000000,4.000000,4.000000,4.000000,4.000000,4.000000,4.000000,2.000000,4.000000,3.000000,4.000000,4.000000,4.000000,4.000000,4.000000,4.000000,4.000000,4.000000,4.000000,3.000000,4.000000,4.000000
1578523403.437233,81.000000,0.000000,3.120186,-40.604584,-675.184998,-128.767654,16.965368,-24.177465,17.486357,3.393866,40.636955,-43.022346,56.357079,106.937157,56.449997,83.451736,130.999847,130.410553,50.851860,40.017246,180.694092,119.266731,73.042580,48.782913,17.430008,39.326237,-7.879138,78.583473,-91.748955,65.461288,-3.559972,-77.386841,63.446491,-483.246033,0.000000,186.000000,-1.000000,,,,0.000000,4.000000,4.000000,4.000000,4.000000,4.000000,4.000000,4.000000,4.000000,4.000000,4.000000,4.000000,4.000000,4.000000,4.000000,4.000000,4.000000,4.000000,2.000000,4.000000,3.000000,4.000000,4.000000,4.000000,4.000000,4.000000,4.000000,4.000000,4.000000,4.000000,3.000000,4.000000,4.000000
1578523403.445082,82.000000,0.000000,3.117066,-40.563980,-664.766235,-122.997864,16.948404,-22.102007,25.674000,5.441754,47.262985,-42.979324,72.710976,121.189194,64.085854,90.034950,147.279099,142.587845,59.518955,54.336205,198.974930,151.967972,95.533638,59.503361,27.668989,67.492035,14.180023,84.145912,-85.503365,71.549675,-3.043591,-77.822273,70.562531,-480.198669,0.000000,157.000000,-1.000000,,,,0.000000,4.000000,4.000000,4.000000,4.000000,4.000000,4.000000,4.000000,4.000000,4.000000,4.000000,4.000000,4.000000,4.000000,4.000000,4.000000,4.000000,4.000000,2.000000,4.000000,3.000000,4.000000,4.000000,4.000000,4.000000,4.000000,4.000000,4.000000,4.000000,4.000000,3.000000,4.000000,4.000000
1578523403.452831,83.000000,0.000000,3.113949,-40.523415,-659.486084,-122.874863,15.905814,-21.567083,25.648325,2.359390,50.805466,-35.756859,80.330574,100.555183,65.560226,88.919273,126.106178,151.163208,63.562000,59.410072,205.955444,178.482681,110.822723,63.546421,48.666962,61.270699,0.319689,87.651512,-85.417862,71.478127,-3.040548,-75.693169,72.030426,-472.026154,0.000000,157.000000,-1.000000,,,,0.000000,4.000000,4.000000,4.000000,4.000000,4.000000,4.000000,4.000000,4.000000,4.000000,4.000000,4.000000,4.000000,4.000000,4.000000,4.000000,4.000000,4.000000,2.000000,4.000000,3.000000,4.000000,4.000000,4.000000,4.000000,4.000000,4.000000,4.000000,4.000000,4.000000,3.000000,4.000000,4.000000
1578523403.460680,84.000000,0.000000,3.110835,-40.995712,-659.852234,-119.675064,17.941191,-21.545517,19.981651,4.408312,55.882862,-29.567255,79.737427,84.044373,65.494667,87.804718,107.518532,149.473572,62.472797,56.786560,197.031540,156.252914,97.891388,62.457233,56.823421,77.619682,6.473216,97.820274,-86.358086,72.945107,-3.550328,-73.566193,78.625069,-458.733612,0.000000,181.000000,-1.000000,,,,0.000000,4.000000,4.000000,4.000000,4.000000,4.000000,4.000000,4.000000,4.000000,4.000000,4.000000,4.000000,4.000000,4.000000,4.000000,4.000000,4.000000,4.000000,2.000000,4.000000,3.000000,4.000000,4.000000,4.000000,4.000000,4.000000,4.000000,4.000000,4.000000,4.000000,3.000000,4.000000,4.000000
1578523403.468429,85.000000,0.000000,3.107724,-37.877792,-657.141113,-111.863083,22.538633,-21.523972,20.474489,13.121853,59.929546,-29.024866,89.401276,100.883408,71.583023,92.845116,129.462296,150.349747,62.410324,56.729774,195.296051,140.712036,89.588371,62.907597,51.638393,96.516426,26.466742,100.286552,-85.246086,73.384979,-3.033957,-73.492630,81.623367,-460.326172,0.000000,134.000000,-1.000000,,,,0.000000,4.000000,4.000000,4.000000,4.000000,4.000000,4.000000,4.000000,4.000000,4.000000,4.000000,4.000000,4.000000,4.000000,4.000000,4.000000,4.000000,4.000000,2.000000,4.000000,3.000000,4.000000,4.000000,4.000000,4.000000,4.000000,4.000000,4.000000,4.000000,4.000000,3.000000,4.000000,4.000000
