title:odd_even_left_right, start timestamp:2020-01-08T16:19:06.311261-06:00, stop timestamp:2020-01-08T16:19:27.270261-06:00, headset type:EPOCFLEX, headset serial:F00000F7, headset firmware:f12, subject name:Kat, channels:74, sampling rate:128, samples:2702      , version:2.0
Timestamp,EEG.Counter,EEG.Interpolated,EEG.Cz,EEG.Fz,EEG.Fp1,EEG.F7,EEG.F3,EEG.FC1,EEG.C3,EEG.FC5,EEG.FT9,EEG.T7,EEG.TP9,EEG.CP5,EEG.CP1,EEG.P3,EEG.P7,EEG.O1,EEG.Pz,EEG.Oz,EEG.O2,EEG.P8,EEG.P4,EEG.CP2,EEG.CP6,EEG.TP10,EEG.T8,EEG.FT10,EEG.FC6,EEG.C4,EEG.FC2,EEG.F4,EEG.F8,EEG.Fp2,EEG.HighBitFlex,EEG.RawCq,EEG.Battery,MarkerIndex,MarkerType,MarkerValueInt,EEG.MarkerHardware,CQ.Cz,CQ.Fz,CQ.Fp1,CQ.F7,CQ.F3,CQ.FC1,CQ.C3,CQ.FC5,CQ.FT9,CQ.T7,CQ.TP9,CQ.CP5,CQ.CP1,CQ.P3,CQ.P7,CQ.O1,CQ.Pz,CQ.Oz,CQ.O2,CQ.P8,CQ.P4,CQ.CP2,CQ.CP6,CQ.TP10,CQ.T8,CQ.FT10,CQ.FC6,CQ.C4,CQ.FC2,CQ.F4,CQ.F8,CQ.Fp2
1578521946.311261,97.000000,0.000000,-70.230682,-6.456934,-255.359421,32.223396,-1.126560,-29.562510,-8.204580,-4.748882,12.943019,-62.001759,52.708881,-47.711868,12.166704,11.464580,24.208128,43.695877,20.218031,2.235691,55.986073,-18.672127,19.070267,15.915903,-6.371845,4.793802,10.577259,14.299945,3.430216,-0.763107,-9.793200,-37.085659,82.848198,-227.143356,8064.000000,0.000000,-1.000000,,,,0.000000,4.000000,4.000000,4.000000,4.000000,4.000000,4.000000,4.000000,4.000000,4.000000,4.000000,4.000000,4.000000,4.000000,4.000000,4.000000,4.000000,4.000000,3.000000,4.000000,4.000000,4.000000,4.000000,4.000000,4.000000,4.000000,4.000000,4.000000,4.000000,4.000000,4.000000,3.000000,4.000000
1578521946.319111,98.000000,0.000000,-70.673271,-6.450478,-251.001495,34.242455,-1.638254,-29.532946,-8.196375,-5.769774,19.083921,-59.375656,64.451042,-48.689796,12.154537,12.991577,19.055716,44.165001,20.710634,-6.484494,58.494190,1.859366,19.051195,16.412807,12.608886,8.378752,12.105144,14.798466,3.939606,2.827400,-9.783407,-37.048573,84.303810,-222.300827,8064.000000,0.000000,-1.000000,,,,0.000000,4.000000,4.000000,4.000000,4.000000,4.000000,4.000000,4.000000,4.000000,4.000000,4.000000,4.000000,4.000000,4.000000,4.000000,4.000000,4.000000,4.000000,3.000000,4.000000,4.000000,4.000000,4.000000,4.000000,4.000000,4.000000,4.000000,4.000000,4.000000,4.000000,4.000000,3.000000,4.000000
1578521946.326860,99.000000,0.000000,-70.602600,-6.956848,-249.724854,39.336418,-2.662257,-29.503414,-9.213820,-6.276824,22.654581,-54.700893,69.514801,-48.641106,11.629562,15.029867,20.062300,14.890068,17.100180,-22.888266,52.794670,-14.552750,16.468042,13.319471,16.186020,3.754988,11.067397,16.322128,2.910025,1.798932,-9.773623,-37.011524,84.219513,-223.104172,8064.000000,0.000000,-1.000000,,,,0.000000,4.000000,4.000000,4.000000,4.000000,4.000000,4.000000,4.000000,4.000000,4.000000,4.000000,4.000000,4.000000,4.000000,4.000000,4.000000,4.000000,4.000000,3.000000,4.000000,4.000000,4.000000,4.000000,4.000000,4.000000,4.000000,4.000000,4.000000,4.000000,4.000000,4.000000,3.000000,4.000000
1578521946.334710,100.000000,0.000000,-70.019173,-6.437070,-250.500763,40.835545,-1.121133,-29.473909,-8.691786,-5.244907,22.119106,-53.620552,66.368362,-47.566826,11.617932,15.527658,30.811468,11.285434,16.057438,-20.814095,51.203411,-41.204865,8.759267,12.793332,11.041630,-14.197485,-11.507773,17.844269,3.419936,1.797133,-9.763850,-36.974514,83.622467,-222.368240,8064.000000,0.000000,-1.000000,,,,0.000000,4.000000,4.000000,4.000000,4.000000,4.000000,4.000000,4.000000,4.000000,4.000000,4.000000,4.000000,4.000000,4.000000,4.000000,4.000000,4.000000,4.000000,3.000000,4.000000,4.000000,4.000000,4.000000,4.000000,4.000000,4.000000,4.000000,4.000000,4.000000,4.000000,4.000000,3.000000,4.000000
1578521946.342460,101.000000,0.000000,-69.949158,-6.430633,-249.224625,40.281887,-1.632832,-29.444435,-8.170274,-5.239662,21.584167,-53.054111,64.250710,-40.852592,15.196058,18.589054,46.165272,24.607483,13.990099,-16.690718,58.844517,-45.266224,1.058200,13.293359,8.466485,-7.516621,-8.419342,25.005911,5.980618,2.308156,-9.754086,-36.937538,84.051666,-219.068954,8064.000000,0.000000,-1.000000,,,,0.000000,4.000000,4.000000,4.000000,4.000000,4.000000,4.000000,4.000000,4.000000,4.000000,4.000000,4.000000,4.000000,4.000000,4.000000,4.000000,4.000000,4.000000,3.000000,4.000000,4.000000,4.000000,4.000000,4.000000,4.000000,4.000000,4.000000,4.000000,4.000000,4.000000,4.000000,3.000000,4.000000
1578521946.350310,102.000000,0.000000,-69.879204,-6.424202,-246.924118,40.241604,-2.144020,-29.414991,-2.521077,-5.747242,23.101044,-50.436954,65.212097,-39.273277,19.283426,23.185848,36.888336,25.095695,12.950467,-17.186848,70.067726,-38.041470,2.595603,12.767245,7.432378,25.311409,24.409590,30.109110,7.513099,2.305848,-9.744332,-36.900600,83.967613,-217.824249,8064.000000,0.000000,-1.000000,,,,0.000000,4.000000,4.000000,4.000000,4.000000,4.000000,4.000000,4.000000,4.000000,4.000000,4.000000,4.000000,4.000000,4.000000,4.000000,4.000000,4.000000,4.000000,3.000000,4.000000,4.000000,4.000000,4.000000,4.000000,4.000000,4.000000,4.000000,4.000000,4.000000,4.000000,4.000000,3.000000,4.000000
1578521946.358059,103.000000,0.000000,-69.809326,-6.417778,-245.138733,40.201363,-2.141876,-29.385576,-2.518556,-5.741496,25.129225,-51.924980,76.941757,-51.028877,19.776964,18.547279,4.543757,21.480856,13.450337,-13.067096,74.613037,-40.054710,3.618648,12.754478,6.912125,23.234816,26.436462,28.027719,6.992766,1.790722,-9.734588,-36.863701,83.370827,-218.632065,8064.000000,0.000000,-1.000000,,,,0.000000,4.000000,4.000000,4.000000,4.000000,4.000000,4.000000,4.000000,4.000000,4.000000,4.000000,4.000000,4.000000,4.000000,4.000000,4.000000,4.000000,4.000000,3.000000,4.000000,4.000000,4.000000,4.000000,4.000000,4.000000,4.000000,4.000000,4.000000,4.000000,4.000000,4.000000,3.000000,4.000000
1578521946.365909,104.000000,0.000000,-69.739517,-6.411361,-245.406418,39.648342,-2.139734,-29.356192,-8.157063,-5.735754,25.104095,-57.001259,86.608406,-56.106052,18.731546,15.451808,-5.717196,22.997837,12.411246,-9.977106,72.999969,-37.450554,4.127850,12.741723,5.879572,-9.096112,-5.897666,32.102257,9.549875,1.788931,-9.724854,-36.826839,83.800278,-218.413422,8192.000000,0.000000,-1.000000,,,,0.000000,4.000000,4.000000,4.000000,4.000000,4.000000,4.000000,4.000000,4.000000,4.000000,4.000000,4.000000,4.000000,4.000000,4.000000,4.000000,4.000000,4.000000,3.000000,4.000000,4.000000,4.000000,4.000000,4.000000,4.000000,4.000000,4.000000,4.000000,4.000000,4.000000,4.000000,3.000000,4.000000
1578521946.373659,105.000000,0.000000,-69.669777,-6.404949,-245.161011,39.608692,-2.137594,-29.326836,-6.610445,-5.730018,25.078991,-57.969898,74.214104,-45.280716,19.225634,21.077381,23.006470,24.000479,13.424476,-10.479949,73.439789,-23.566948,7.200645,12.728982,5.873692,-6.010093,-3.327666,39.762459,11.591608,2.299962,-9.715128,-36.790012,83.716476,-218.195007,8192.000000,0.000000,-1.000000,,,,0.000000,4.000000,4.000000,4.000000,4.000000,4.000000,4.000000,4.000000,4.000000,4.000000,4.000000,4.000000,4.000000,4.000000,4.000000,4.000000,4.000000,4.000000,3.000000,4.000000,4.000000,4.000000,4.000000,4.000000,4.000000,4.000000,4.000000,4.000000,4.000000,4.000000,4.000000,3.000000,4.000000
1578521946.381509,106.000000,0.000000,-69.600105,-6.398544,-244.915848,39.056263,-2.135457,-29.297508,-6.091014,-5.724288,26.592375,-56.373466,60.806561,-45.748257,19.206409,17.979382,33.239872,23.463659,13.411052,-10.469469,72.853523,-34.312611,3.603701,12.716252,6.893459,19.636944,19.239763,30.491928,6.451811,0.246380,-9.705413,-36.753220,82.094299,-219.002457,8064.000000,0.000000,-1.000000,,,,0.000000,4.000000,4.000000,4.000000,4.000000,4.000000,4.000000,4.000000,4.000000,4.000000,4.000000,4.000000,4.000000,4.000000,4.000000,4.000000,4.000000,4.000000,3.000000,4.000000,4.000000,4.000000,4.000000,4.000000,4.000000,4.000000,4.000000,4.000000,4.000000,4.000000,4.000000,3.000000,4.000000
1578521946.389258,107.000000,0.000000,-69.530510,-6.392146,-245.183746,36.453106,-2.133321,-29.268209,-17.366974,-5.718564,20.411936,-56.829914,60.745754,-61.599941,18.674381,7.192172,5.001505,23.440195,7.756615,-10.459000,68.678108,-61.970608,-5.630672,10.652254,3.296822,13.463460,5.374371,13.538361,-0.734128,-4.369251,-9.695707,-36.716469,80.473740,-222.373199,8064.000000,0.000000,-1.000000,,,,0.000000,4.000000,4.000000,4.000000,4.000000,4.000000,4.000000,4.000000,4.000000,4.000000,4.000000,4.000000,4.000000,4.000000,4.000000,4.000000,4.000000,4.000000,3.000000,4.000000,4.000000,4.000000,4.000000,4.000000,4.000000,4.000000,4.000000,4.000000,4.000000,4.000000,4.000000,3.000000,4.000000
1578521946.397108,108.000000,0.000000,-69.460976,-6.385754,-244.425751,34.878189,-2.131188,-29.238943,-17.862427,-5.712845,13.212036,-57.285904,60.685009,-56.922958,20.194170,12.826005,-0.131702,21.878294,7.236038,-13.012643,65.019684,-56.780430,-7.676323,8.077499,-3.885962,5.244868,1.266432,10.447899,-1.246214,-6.416163,-9.686012,-36.679752,78.854805,-225.227753,8064.000000,0.000000,-1.000000,,,,0.000000,4.000000,4.000000,4.000000,4.000000,4.000000,4.000000,4.000000,4.000000,4.000000,4.000000,4.000000,4.000000,4.000000,4.000000,4.000000,4.000000,4.000000,3.000000,4.000000,4.000000,4.000000,4.000000,4.000000,4.000000,4.000000,4.000000,4.000000,4.000000,4.000000,4.000000,3.000000,4.000000
1578521946.404958,109.000000,0.000000,-69.391518,-6.379368,-241.617218,42.535622,-2.129057,-29.209703,-1.434309,-5.707132,23.968056,-56.202980,66.265350,-36.353214,22.738077,25.633692,27.047916,19.292313,14.408289,-14.538093,62.390564,-34.159550,-4.591724,9.095063,-6.446178,14.983213,19.726704,13.514374,1.831955,-5.896927,-9.676326,-36.643070,80.314415,-221.925598,8192.000000,0.000000,-1.000000,,,,0.000000,4.000000,4.000000,4.000000,4.000000,4.000000,4.000000,4.000000,4.000000,4.000000,4.000000,4.000000,4.000000,4.000000,4.000000,4.000000,4.000000,4.000000,3.000000,4.000000,4.000000,4.000000,4.000000,4.000000,4.000000,4.000000,4.000000,4.000000,4.000000,4.000000,4.000000,3.000000,4.000000
1578521946.412708,110.000000,0.000000,-69.322128,-6.372988,-239.837143,51.723854,-2.126928,-29.180494,3.695331,-5.188605,36.764599,-57.172417,80.558060,-36.316860,22.715340,26.120878,28.046511,19.785841,16.445162,-14.010734,65.405098,-30.022825,-3.561491,12.162891,-2.849988,3.173358,8.937747,15.039321,2.855764,-4.865389,-9.666650,-36.606430,85.362305,-214.524185,8064.000000,0.000000,-1.000000,,,,0.000000,4.000000,4.000000,4.000000,4.000000,4.000000,4.000000,4.000000,4.000000,4.000000,4.000000,4.000000,4.000000,4.000000,4.000000,4.000000,4.000000,4.000000,3.000000,4.000000,4.000000,4.000000,4.000000,4.000000,4.000000,4.000000,4.000000,4.000000,4.000000,4.000000,4.000000,3.000000,4.000000
1578521946.420557,111.000000,0.000000,-69.252800,-6.366615,-240.110123,45.518284,-2.124801,-29.151314,-6.051954,-5.696237,29.035528,-60.704987,79.451859,-47.562595,23.205444,22.505014,16.223593,24.381439,13.351794,-13.483902,79.185844,-21.274853,-2.532289,12.663548,0.742605,-18.368277,-16.712217,18.101204,2.852908,-2.809241,-9.656983,-36.569820,86.302582,-211.745560,8064.000000,0.000000,-1.000000,,,,0.000000,4.000000,4.000000,4.000000,4.000000,4.000000,4.000000,4.000000,4.000000,4.000000,4.000000,4.000000,4.000000,4.000000,4.000000,4.000000,4.000000,4.000000,3.000000,4.000000,4.000000,4.000000,4.000000,4.000000,4.000000,4.000000,4.000000,4.000000,4.000000,4.000000,4.000000,3.000000,4.000000
1578521946.428307,112.000000,0.000000,-69.183548,-6.360249,-239.870010,33.165073,-2.122676,-29.122162,-9.635646,-7.741823,17.211620,-64.234024,66.039070,-46.489391,23.182240,22.482510,31.079163,27.946802,13.851263,-13.470418,87.824608,-7.407425,0.034346,12.650885,3.305965,-5.016575,-5.413453,17.570284,3.362876,-1.780791,-9.647326,-36.533253,81.088074,-214.097916,8064.000000,0.000000,-1.000000,,,,0.000000,4.000000,4.000000,4.000000,4.000000,4.000000,4.000000,4.000000,4.000000,4.000000,4.000000,4.000000,4.000000,4.000000,4.000000,4.000000,4.000000,4.000000,3.000000,4.000000,4.000000,4.000000,4.000000,4.000000,4.000000,4.000000,4.000000,4.000000,4.000000,4.000000,4.000000,3.000000,4.000000
1578521946.436157,113.000000,0.000000,-69.114365,-6.353889,-239.117325,31.593447,-1.607733,-29.093040,-7.574728,-9.272542,18.220049,-64.682610,57.255085,-47.468544,20.594954,19.895924,28.996801,26.380394,11.273309,-14.482589,86.198326,-27.912838,0.547132,13.151054,5.866762,26.270493,27.412474,13.962969,3.872333,-1.266190,-9.637679,-36.496719,78.955704,-215.935104,8192.000000,0.000000,-1.000000,,,,0.000000,4.000000,4.000000,4.000000,4.000000,4.000000,4.000000,4.000000,4.000000,4.000000,4.000000,4.000000,4.000000,4.000000,4.000000,4.000000,4.000000,4.000000,3.000000,4.000000,4.000000,4.000000,4.000000,4.000000,4.000000,4.000000,4.000000,4.000000,4.000000,4.000000,4.000000,3.000000,4.000000
1578521946.443907,114.000000,0.000000,-69.045250,-6.347535,-241.442307,33.613136,-2.631766,-28.551126,-8.079974,-9.776091,16.663368,-61.028187,55.659367,-51.523640,19.035898,18.337566,6.403703,24.815552,5.621010,-13.955286,96.368538,-48.910564,-0.991876,10.573801,5.348074,24.705761,29.949163,13.436186,3.868461,-1.264924,-9.628041,-36.460220,79.389572,-215.719162,8064.000000,0.000000,-1.000000,,,,0.000000,4.000000,4.000000,4.000000,4.000000,4.000000,4.000000,4.000000,4.000000,4.000000,4.000000,4.000000,4.000000,4.000000,4.000000,4.000000,4.000000,4.000000,3.000000,4.000000,4.000000,4.000000,4.000000,4.000000,4.000000,4.000000,4.000000,4.000000,4.000000,4.000000,4.000000,3.000000,4.000000
1578521946.451756,115.000000,0.000000,-70.001846,-6.341187,-242.739319,30.502598,-2.116314,-29.548216,-8.071895,-8.740673,10.492859,-55.838955,55.603710,-44.292629,19.016863,19.344870,22.294735,25.303556,9.205132,-12.402869,107.554214,-26.810373,1.060398,5.947843,2.265803,-7.626637,-2.388478,12.397108,3.351772,-1.776479,-9.618413,-36.423763,78.797363,-217.041916,8064.000000,0.000000,-1.000000,,,,0.000000,4.000000,4.000000,4.000000,4.000000,4.000000,4.000000,4.000000,4.000000,4.000000,4.000000,4.000000,4.000000,4.000000,4.000000,4.000000,4.000000,4.000000,3.000000,4.000000,4.000000,4.000000,4.000000,4.000000,4.000000,4.000000,4.000000,4.000000,4.000000,4.000000,4.000000,3.000000,4.000000
1578521946.459506,116.000000,0.000000,-72.495949,-6.334846,-243.522232,27.395172,-1.088557,-32.082771,-11.653566,-9.244753,9.456725,-60.398499,45.804516,-48.350899,15.920922,13.684500,25.349363,17.073124,11.247210,-18.544312,87.959480,-15.501512,4.136261,5.429074,3.801999,-28.644651,-22.386089,9.820609,3.861241,-1.261882,-9.608794,-36.387337,79.231384,-221.440247,8064.000000,0.000000,-1.000000,,,,0.000000,4.000000,4.000000,4.000000,4.000000,4.000000,4.000000,4.000000,4.000000,4.000000,4.000000,4.000000,4.000000,4.000000,4.000000,4.000000,4.000000,4.000000,3.000000,4.000000,4.000000,4.000000,4.000000,4.000000,4.000000,4.000000,4.000000,4.000000,4.000000,4.000000,4.000000,3.000000,4.000000
1578521946.467356,117.000000,0.000000,-72.936272,-6.328511,-245.842804,28.393419,-6.215673,-33.076328,-18.308578,-12.825252,10.985729,-70.081688,32.938198,-74.456398,11.289617,4.952866,-6.983678,5.774000,2.005193,-29.807819,63.256142,-44.203960,0.029560,5.423645,6.362299,-18.872417,-8.517550,10.323608,3.344559,-1.773441,-9.599186,-36.350952,78.126511,-223.270096,8064.000000,0.000000,-1.000000,,,,0.000000,4.000000,4.000000,4.000000,4.000000,4.000000,4.000000,4.000000,4.000000,4.000000,4.000000,4.000000,4.000000,4.000000,4.000000,4.000000,4.000000,4.000000,3.000000,4.000000,4.000000,4.000000,4.000000,4.000000,4.000000,4.000000,4.000000,4.000000,4.000000,4.000000,4.000000,3.000000,4.000000
1578521946.475106,118.000000,0.000000,-72.350517,-6.322183,-245.596970,28.877846,-13.901765,-32.530430,-20.341553,-16.402170,10.461924,-70.524429,43.674492,-78.484505,10.765507,5.460734,-11.592079,14.486175,-2.099376,-26.188269,71.398010,-57.493088,-4.073034,5.418221,1.740553,-4.494571,7.901224,10.313285,-0.761350,-7.925514,-9.076766,-36.314598,72.920181,-222.533997,8064.000000,0.000000,-1.000000,,,,0.000000,4.000000,4.000000,4.000000,4.000000,4.000000,4.000000,4.000000,4.000000,4.000000,4.000000,4.000000,4.000000,4.000000,4.000000,4.000000,4.000000,4.000000,3.000000,4.000000,4.000000,4.000000,4.000000,4.000000,4.000000,4.000000,4.000000,4.000000,4.000000,4.000000,4.000000,3.000000,4.000000
1578521946.482955,119.000000,0.000000,-72.278168,-6.315860,-240.223160,27.823326,-12.349401,-32.497902,-19.295570,-14.847306,9.938641,-64.300056,60.553894,-49.688068,11.780382,10.583478,21.240026,25.753740,2.005287,-16.418489,86.198410,-45.640724,0.033604,6.438444,-1.850931,-5.515717,4.816400,10.302972,-4.350332,-13.045794,-9.580510,-37.816746,71.821617,-222.311462,8064.000000,0.000000,-1.000000,,,,0.000000,4.000000,4.000000,4.000000,4.000000,4.000000,4.000000,4.000000,4.000000,4.000000,4.000000,4.000000,4.000000,4.000000,4.000000,4.000000,4.000000,4.000000,3.000000,4.000000,4.000000,4.000000,4.000000,4.000000,4.000000,4.000000,4.000000,4.000000,4.000000,4.000000,4.000000,3.000000,4.000000
1578521946.490705,120.000000,0.000000,-72.718704,-6.309545,-237.418839,30.359606,-4.131924,-32.465405,-19.789095,-12.268356,10.954344,-63.210117,54.852314,-37.330688,11.255781,11.598536,27.885452,13.420294,0.464821,-23.068739,79.445541,-50.723289,-2.530533,2.329442,0.202202,-13.202509,-7.496109,12.856771,-4.345982,-13.032747,-11.109391,-39.830212,76.877998,-222.601974,8064.000000,0.000000,-1.000000,,,,0.000000,4.000000,4.000000,4.000000,4.000000,4.000000,4.000000,4.000000,4.000000,4.000000,4.000000,4.000000,4.000000,4.000000,4.000000,4.000000,4.000000,4.000000,3.000000,4.000000,4.000000,4.000000,4.000000,4.000000,4.000000,4.000000,4.000000,4.000000,4.000000,4.000000,4.000000,3.000000,4.000000
1578521946.498555,121.000000,0.000000,-72.133171,-6.303235,-237.694244,35.457451,-1.050869,-33.971401,-19.769306,-12.768909,10.943389,-64.685371,60.951309,-51.139511,11.244525,11.074117,-4.450126,10.842771,-1.074106,-27.148233,76.801994,-55.800770,-12.784412,-6.390836,-5.439026,-11.138024,-12.616818,13.356735,-3.315995,-12.506894,-13.149564,-40.303204,79.365227,-221.866562,8192.000000,0.000000,-1.000000,,,,0.000000,4.000000,4.000000,4.000000,4.000000,4.000000,4.000000,4.000000,4.000000,4.000000,4.000000,4.000000,4.000000,4.000000,4.000000,4.000000,4.000000,4.000000,3.000000,4.000000,4.000000,4.000000,4.000000,4.000000,4.000000,4.000000,4.000000,4.000000,4.000000,4.000000,4.000000,3.000000,4.000000
1578521946.506305,122.000000,0.000000,-73.086678,-6.296932,-237.456543,35.934814,-2.588280,-35.988708,-19.749537,-12.756140,9.906805,-61.543762,84.480103,-57.755039,11.746101,11.575863,-3.932855,31.857569,5.080814,-12.762111,94.673912,-33.693687,-8.156243,-8.435727,-15.177177,4.770550,-0.809329,10.779276,-4.338319,-12.494388,-15.187696,-39.750080,78.260223,-221.644684,8320.000000,0.000000,-1.000000,,,,0.000000,4.000000,4.000000,4.000000,4.000000,4.000000,4.000000,4.000000,4.000000,4.000000,4.000000,4.000000,4.000000,4.000000,4.000000,4.000000,4.000000,4.000000,3.000000,4.000000,4.000000,4.000000,4.000000,4.000000,4.000000,4.000000,4.000000,4.000000,4.000000,4.000000,4.000000,3.000000,4.000000
1578521946.514154,123.000000,0.000000,-75.064873,-6.290635,-236.706268,36.411701,-1.560051,-36.465542,-19.216967,-12.230563,11.435359,-55.328369,70.549469,-54.107540,11.734355,12.077107,18.635181,31.312891,6.101375,-8.133965,105.861290,-24.942045,-0.968600,-5.350369,-12.085076,17.586292,13.550454,9.742856,-4.333981,-9.917790,-16.710970,-40.223148,78.181961,-221.423050,8064.000000,0.000000,-1.000000,,,,0.000000,4.000000,4.000000,4.000000,4.000000,4.000000,4.000000,4.000000,4.000000,4.000000,4.000000,4.000000,4.000000,4.000000,4.000000,4.000000,4.000000,4.000000,3.000000,4.000000,4.000000,4.000000,4.000000,4.000000,4.000000,4.000000,4.000000,4.000000,4.000000,4.000000,4.000000,3.000000,4.000000
1578521946.521904,124.000000,0.000000,-76.015450,-6.284344,-236.982376,40.990673,-1.558491,-35.916256,-16.120827,-13.243974,15.526488,-52.708939,42.273788,-48.925228,10.696980,14.629133,19.642187,22.563629,6.608094,-12.741215,103.191322,-41.840179,-6.608657,-6.370659,-4.380684,12.440500,6.357417,9.733112,-1.765545,-8.882232,-17.207079,-40.182926,78.616600,-222.227264,8064.000000,0.000000,-1.000000,,,,0.000000,4.000000,4.000000,4.000000,4.000000,4.000000,4.000000,4.000000,4.000000,4.000000,4.000000,4.000000,4.000000,4.000000,4.000000,4.000000,4.000000,4.000000,3.000000,4.000000,4.000000,4.000000,4.000000,4.000000,4.000000,4.000000,4.000000,4.000000,4.000000,4.000000,4.000000,3.000000,4.000000
1578521946.529754,125.000000,0.000000,-75.939430,-6.790880,-237.258224,43.513786,-2.582573,-36.393162,-13.027782,-13.230730,18.587885,-52.656231,58.128952,-40.671177,10.686283,19.229889,37.571262,40.489784,15.319434,-4.010525,105.652237,-41.798340,-3.525125,-4.825827,-5.401944,8.325496,-3.905351,9.723380,-0.225318,-9.386169,-17.189873,-40.142742,78.537979,-221.492218,8064.000000,0.000000,-1.000000,,,,0.000000,4.000000,4.000000,4.000000,4.000000,4.000000,4.000000,4.000000,4.000000,4.000000,4.000000,4.000000,4.000000,4.000000,4.000000,4.000000,4.000000,4.000000,3.000000,4.000000,4.000000,4.000000,4.000000,4.000000,4.000000,4.000000,4.000000,4.000000,4.000000,4.000000,4.000000,3.000000,4.000000
1578521946.537504,126.000000,0.000000,-75.350670,-6.784090,-237.020966,42.957451,-1.554349,-36.356766,-10.963472,-12.191858,18.056477,-51.577934,74.481079,-43.194607,12.726878,17.672197,45.225998,40.962116,15.816936,-8.621899,106.572227,-25.859104,6.734810,-1.231258,-5.396543,5.753068,-4.414266,10.226477,-2.276374,-8.863963,-16.147041,-40.102600,78.459442,-219.732254,8064.000000,0.000000,-1.000000,,,,0.000000,4.000000,4.000000,4.000000,4.000000,4.000000,4.000000,4.000000,4.000000,4.000000,4.000000,4.000000,4.000000,4.000000,4.000000,4.000000,4.000000,4.000000,3.000000,4.000000,4.000000,4.000000,4.000000,4.000000,4.000000,4.000000,4.000000,4.000000,4.000000,4.000000,4.000000,3.000000,4.000000
1578521946.545353,127.000000,0.000000,-75.275322,-6.264485,-236.271118,42.914494,-3.604077,-35.807590,-14.029432,-16.282230,18.038420,-54.090458,53.893776,-64.689873,8.098767,7.398115,12.873080,12.203204,1.954965,-28.613277,94.157959,-27.371708,-0.451412,-4.306950,-3.339864,-9.637300,-6.973955,8.677789,-5.351021,-9.367920,-13.566792,-40.062496,78.380981,-221.563812,8064.000000,0.000000,-1.000000,,,,0.000000,4.000000,4.000000,4.000000,4.000000,4.000000,4.000000,4.000000,4.000000,4.000000,4.000000,4.000000,4.000000,4.000000,4.000000,4.000000,4.000000,4.000000,3.000000,4.000000,4.000000,4.000000,4.000000,4.000000,4.000000,4.000000,4.000000,4.000000,4.000000,4.000000,4.000000,3.000000,4.000000
1578521946.553103,0.000000,0.000000,-75.712868,-6.771041,-237.060486,42.358757,-9.754319,-35.771782,-17.092325,-20.881332,17.507561,-55.574829,52.301422,-73.855949,4.500925,4.826614,-10.216716,19.370487,-1.123913,-19.866714,88.935600,-34.523823,-6.604806,-3.277002,-10.516011,-8.089202,-4.915699,11.746034,-1.755926,-8.845731,-13.040404,-40.535255,78.302605,-220.316605,0.000000,214.000000,-1.000000,,,,0.000000,4.000000,4.000000,4.000000,4.000000,4.000000,4.000000,4.000000,4.000000,4.000000,4.000000,4.000000,4.000000,4.000000,4.000000,4.000000,4.000000,4.000000,3.000000,4.000000,4.000000,4.000000,4.000000,4.000000,4.000000,4.000000,4.000000,4.000000,4.000000,4.000000,4.000000,3.000000,4.000000
1578521946.560953,1.000000,0.000000,-74.098694,-6.251449,-236.310608,43.342041,-8.206103,-35.736012,-5.793182,-13.680964,19.541336,-47.314125,81.992706,-47.628250,16.291296,20.206404,22.614014,48.069065,10.672083,-0.872489,103.718460,-21.155966,8.273593,10.572430,-13.582418,14.995811,10.473832,23.016338,9.015060,-2.683039,-12.514544,-36.904976,78.737122,-207.275772,0.000000,142.000000,-1.000000,,,,0.000000,4.000000,4.000000,4.000000,4.000000,4.000000,4.000000,4.000000,4.000000,4.000000,3.000000,4.000000,4.000000,4.000000,4.000000,4.000000,4.000000,4.000000,3.000000,4.000000,4.000000,4.000000,4.000000,4.000000,4.000000,4.000000,4.000000,4.000000,4.000000,4.000000,4.000000,3.000000,4.000000
1578521946.568703,2.000000,0.000000,-69.409210,-4.193916,-229.920456,47.401264,-1.531231,-35.700275,14.212611,-1.359591,24.137178,-34.959118,84.474815,-16.811392,32.172440,36.083633,55.411911,39.815868,17.840899,-7.025463,115.409607,-8.314297,21.598654,21.331087,3.354241,14.467994,13.027461,29.659990,15.672712,3.986310,-10.450747,-30.201405,77.632744,-196.812088,0.000000,177.000000,-1.000000,,,,0.000000,4.000000,4.000000,4.000000,4.000000,4.000000,4.000000,4.000000,4.000000,4.000000,3.000000,4.000000,4.000000,4.000000,4.000000,4.000000,4.000000,4.000000,3.000000,4.000000,4.000000,4.000000,4.000000,4.000000,4.000000,4.000000,4.000000,4.000000,4.000000,4.000000,4.000000,3.000000,4.000000
1578521946.576552,3.000000,0.000000,-66.775696,-2.651260,-224.562332,50.430786,2.572865,-35.664574,16.762501,2.744333,25.138683,-31.847237,61.826241,-15.768939,34.191551,33.996265,43.048809,21.314514,16.284595,-13.685104,104.524971,-25.741880,16.448849,21.309757,18.735502,0.094552,5.834947,27.066227,14.118578,6.033606,-8.901834,-24.530178,72.939728,-202.769119,0.000000,214.000000,-1.000000,,,,0.000000,4.000000,4.000000,4.000000,4.000000,4.000000,4.000000,4.000000,4.000000,4.000000,3.000000,4.000000,4.000000,4.000000,4.000000,4.000000,4.000000,4.000000,3.000000,4.000000,4.000000,4.000000,4.000000,4.000000,4.000000,4.000000,4.000000,4.000000,4.000000,4.000000,4.000000,3.000000,4.000000
1578521946.584302,4.000000,0.000000,-69.273026,-2.648609,-223.824951,50.893173,4.108753,-35.628910,5.463687,1.203127,25.113544,-37.456417,61.764416,-30.624966,30.054794,24.731501,10.698067,14.626534,16.268311,-16.235521,85.446083,-51.357162,5.663169,18.724344,12.050100,12.914970,14.547060,24.987879,11.540357,6.027573,-8.892933,-20.915905,70.302681,-209.745850,0.000000,221.000000,-1.000000,,,,0.000000,4.000000,4.000000,4.000000,4.000000,4.000000,4.000000,4.000000,4.000000,4.000000,3.000000,4.000000,4.000000,4.000000,4.000000,4.000000,4.000000,4.000000,3.000000,4.000000,4.000000,4.000000,4.000000,4.000000,4.000000,4.000000,4.000000,4.000000,4.000000,4.000000,4.000000,3.000000,4.000000
1578521946.592152,5.000000,0.000000,-71.255035,-2.645961,-223.601120,49.303822,5.130286,-35.593281,1.868480,1.714744,26.626892,-43.572807,74.523163,-35.209724,27.973457,22.142668,1.969420,11.022163,17.277683,-24.424414,85.360641,-48.228882,-0.496340,16.141518,-3.859386,21.107183,20.173538,24.450071,11.015996,4.483083,-8.884040,-21.407808,70.745201,-207.997635,0.000000,192.000000,-1.000000,,,,0.000000,4.000000,4.000000,4.000000,4.000000,4.000000,4.000000,4.000000,4.000000,4.000000,3.000000,4.000000,4.000000,4.000000,4.000000,4.000000,4.000000,4.000000,3.000000,4.000000,4.000000,4.000000,4.000000,4.000000,4.000000,4.000000,4.000000,4.000000,4.000000,4.000000,4.000000,3.000000,4.000000
1578521946.599901,6.000000,0.000000,-71.183777,-2.643315,-224.403152,45.664772,2.048232,-35.557686,3.917893,2.225850,22.497702,-45.067696,73.935822,-34.661694,23.842920,22.633345,-3.160754,29.985500,17.260406,-10.553836,99.634254,-37.924244,0.529797,13.048452,-9.496552,-2.503668,0.153365,19.297415,10.492159,2.940139,-9.387977,-24.463324,69.648819,-208.815277,0.000000,218.000000,-1.000000,,,,0.000000,4.000000,4.000000,4.000000,4.000000,4.000000,4.000000,4.000000,4.000000,4.000000,3.000000,4.000000,4.000000,4.000000,4.000000,4.000000,4.000000,4.000000,3.000000,4.000000,4.000000,4.000000,4.000000,4.000000,4.000000,4.000000,4.000000,4.000000,4.000000,4.000000,4.000000,3.000000,4.000000
1578521946.607751,7.000000,0.000000,-71.112595,-2.640671,-226.742859,42.029366,1.533364,-35.522129,1.349873,1.710804,18.372639,-43.996986,74.374702,-40.268059,22.280615,22.097891,-9.824260,50.468334,16.217505,7.405436,103.124359,-53.270935,3.606191,12.522584,-5.384491,-17.372959,-14.718583,16.714016,10.481667,3.450019,-9.378589,-24.438860,66.502243,-211.683380,0.000000,199.000000,-1.000000,,,,0.000000,4.000000,4.000000,4.000000,4.000000,4.000000,4.000000,4.000000,4.000000,4.000000,3.000000,4.000000,4.000000,4.000000,4.000000,4.000000,4.000000,4.000000,3.000000,4.000000,4.000000,4.000000,4.000000,4.000000,4.000000,4.000000,4.000000,4.000000,4.000000,4.000000,4.000000,3.000000,4.000000
1578521946.615501,8.000000,0.000000,-71.041481,-2.638031,-226.003296,42.500156,2.557471,-35.486607,-1.728400,1.709093,25.020933,-44.465809,73.274689,-44.330353,22.258335,21.562973,1.980436,26.315302,13.637184,-11.576328,94.816109,-57.833050,2.064123,12.510061,-1.789363,-5.047894,-3.934633,16.697302,10.471186,6.010672,-8.856389,-24.927242,65.922920,-211.984528,0.000000,169.000000,-1.000000,,,,0.000000,4.000000,4.000000,4.000000,4.000000,4.000000,4.000000,4.000000,4.000000,4.000000,3.000000,4.000000,4.000000,4.000000,4.000000,4.000000,4.000000,4.000000,3.000000,4.000000,4.000000,4.000000,4.000000,4.000000,4.000000,4.000000,4.000000,4.000000,4.000000,4.000000,4.000000,3.000000,4.000000
1578521946.623350,9.000000,0.000000,-71.483261,-3.661034,-224.238831,40.919193,-2.573291,-35.451122,-1.726672,1.707384,27.047194,-48.523907,55.765518,-43.773205,19.671974,21.541410,19.927174,5.263346,11.572265,-24.385265,97.798218,-26.493164,4.113341,12.497551,-1.787574,3.162283,8.889814,13.090860,9.947894,5.491840,-12.437277,-31.568981,66.369820,-212.798187,0.000000,175.000000,-1.000000,,,,0.000000,4.000000,4.000000,4.000000,4.000000,4.000000,4.000000,4.000000,4.000000,4.000000,3.000000,4.000000,4.000000,4.000000,4.000000,4.000000,4.000000,4.000000,3.000000,4.000000,4.000000,4.000000,4.000000,4.000000,4.000000,4.000000,4.000000,4.000000,4.000000,4.000000,4.000000,3.000000,4.000000
1578521946.631100,10.000000,0.000000,-73.463058,-6.221475,-227.604340,38.826992,-5.647641,-35.415668,-0.186483,1.705677,17.276558,-51.552307,50.581547,-42.703789,18.626661,22.032688,24.009809,34.488853,14.124795,-1.796777,104.879906,-12.107697,7.186151,12.485053,0.265496,-1.969085,2.727078,10.513667,10.963587,3.947887,-19.091505,-36.665619,64.764984,-214.636658,0.000000,199.000000,-1.000000,,,,0.000000,4.000000,4.000000,4.000000,4.000000,4.000000,4.000000,4.000000,4.000000,4.000000,3.000000,4.000000,4.000000,4.000000,4.000000,4.000000,4.000000,4.000000,3.000000,4.000000,4.000000,4.000000,4.000000,4.000000,4.000000,4.000000,4.000000,4.000000,4.000000,4.000000,4.000000,3.000000,4.000000
1578521946.638950,11.000000,0.000000,-74.415237,-6.728074,-230.966476,38.275345,-0.513788,-35.380253,-2.750400,1.703971,12.643896,-52.013577,65.915581,-42.661087,18.095213,22.010656,21.934519,51.377441,12.572208,5.384507,101.185280,-35.685333,1.025118,11.446927,3.342153,-2.479936,-2.916675,9.477512,11.465444,3.431119,-21.123697,-35.603310,62.136120,-214.422028,0.000000,193.000000,-1.000000,,,,0.000000,4.000000,4.000000,4.000000,4.000000,4.000000,4.000000,4.000000,4.000000,4.000000,3.000000,4.000000,4.000000,4.000000,4.000000,4.000000,4.000000,4.000000,3.000000,4.000000,4.000000,4.000000,4.000000,4.000000,4.000000,4.000000,4.000000,4.000000,4.000000,4.000000,4.000000,3.000000,4.000000
1578521946.646799,12.000000,0.000000,-74.853645,-6.208526,-228.684219,37.724247,1.025187,-35.344875,-8.388675,1.702267,15.195354,-52.987202,64.311203,-44.669708,11.923272,19.424543,6.527968,21.069653,2.303226,-13.595237,98.007172,-44.367596,-3.591291,7.332916,2.313170,5.727672,7.342652,8.442393,7.864234,0.863585,-16.487188,-36.080528,61.561161,-214.720428,0.000000,206.000000,-1.000000,,,,0.000000,4.000000,4.000000,4.000000,4.000000,4.000000,4.000000,4.000000,4.000000,4.000000,3.000000,4.000000,4.000000,4.000000,4.000000,4.000000,4.000000,4.000000,3.000000,4.000000,4.000000,4.000000,4.000000,4.000000,4.000000,4.000000,4.000000,4.000000,4.000000,4.000000,4.000000,3.000000,4.000000
1578521946.654549,13.000000,0.000000,-74.778793,-6.202317,-219.224777,39.224987,-2.052761,-35.309528,-12.482850,1.700565,21.846827,-54.985497,58.093044,-46.163498,7.295964,13.764092,-21.683687,-3.053981,-5.391385,-20.761129,98.421989,-24.323229,3.078967,4.248661,-0.253246,4.183483,10.412232,19.203182,7.343550,0.862722,-13.393778,-36.557270,66.114983,-213.992889,0.000000,219.000000,-1.000000,,,,0.000000,4.000000,4.000000,4.000000,4.000000,4.000000,4.000000,4.000000,4.000000,4.000000,3.000000,4.000000,4.000000,4.000000,4.000000,4.000000,4.000000,4.000000,3.000000,4.000000,4.000000,4.000000,4.000000,4.000000,4.000000,4.000000,4.000000,4.000000,4.000000,4.000000,4.000000,3.000000,4.000000
1578521946.662399,14.000000,0.000000,-73.165550,-6.708935,-210.800415,44.826786,1.026214,-35.274220,-12.470367,1.698864,31.055748,-52.366409,77.009315,-46.117336,11.904053,10.673406,-26.790209,6.179842,-0.257788,-17.663445,92.682541,-17.632238,7.691272,6.295694,0.259828,-6.077111,-1.905872,32.517311,14.002873,6.502884,-12.867563,-34.469429,74.766823,-211.214783,0.000000,233.000000,-1.000000,,,,0.000000,4.000000,4.000000,4.000000,4.000000,4.000000,4.000000,4.000000,4.000000,4.000000,3.000000,4.000000,4.000000,4.000000,4.000000,4.000000,4.000000,4.000000,3.000000,4.000000,4.000000,4.000000,4.000000,4.000000,4.000000,4.000000,4.000000,4.000000,4.000000,4.000000,4.000000,3.000000,4.000000
1578521946.670149,15.000000,0.000000,-74.630844,-6.189406,-214.179367,44.781960,-0.513273,-35.238945,-11.945076,1.697165,26.409307,-50.262760,84.111786,-45.558395,15.481893,10.662732,-3.686496,28.224943,5.383495,-13.543217,95.153961,-38.640247,2.555376,4.238116,3.849312,11.364863,12.455009,24.279667,10.911947,1.880997,-12.854696,-40.588806,77.768974,-212.029221,0.000000,203.000000,-1.000000,,,,0.000000,4.000000,4.000000,4.000000,4.000000,4.000000,4.000000,4.000000,4.000000,4.000000,3.000000,4.000000,4.000000,4.000000,4.000000,4.000000,4.000000,4.000000,3.000000,4.000000,4.000000,4.000000,4.000000,4.000000,4.000000,4.000000,4.000000,4.000000,4.000000,4.000000,4.000000,3.000000,4.000000
1578521946.677998,16.000000,0.000000,-78.658775,-6.183217,-223.195953,39.608974,-10.769170,-35.203705,-11.933131,1.695468,17.664949,-51.750961,71.719986,-46.025658,14.440769,11.164890,9.137704,38.453129,5.378112,-7.888648,111.981880,-55.524685,-0.524103,-2.432789,3.332642,43.661190,40.647682,10.922053,-3.970760,-16.069603,-12.841842,-49.778988,75.639923,-216.432571,0.000000,198.000000,-1.000000,,,,0.000000,4.000000,4.000000,4.000000,4.000000,4.000000,4.000000,4.000000,4.000000,4.000000,3.000000,4.000000,4.000000,4.000000,4.000000,4.000000,4.000000,4.000000,3.000000,4.000000,4.000000,4.000000,4.000000,4.000000,4.000000,4.000000,4.000000,4.000000,4.000000,4.000000,4.000000,3.000000,4.000000
1578521946.685748,17.000000,0.000000,-74.990379,-5.664213,-225.536865,41.107826,-14.348145,-35.168503,-11.921198,2.719414,29.442158,-50.160748,76.776474,-45.979633,15.451970,11.153726,4.513181,28.671087,7.424016,-10.957683,116.998108,-39.571724,2.040524,3.210670,-4.362998,27.720095,22.145496,13.988054,-7.043712,-15.027891,-11.803358,-45.113823,81.718132,-216.216141,0.000000,219.000000,-1.000000,,,,0.000000,4.000000,4.000000,4.000000,4.000000,4.000000,4.000000,4.000000,4.000000,4.000000,3.000000,4.000000,4.000000,4.000000,4.000000,4.000000,4.000000,4.000000,3.000000,4.000000,4.000000,4.000000,4.000000,4.000000,4.000000,4.000000,4.000000,4.000000,4.000000,4.000000,4.000000,3.000000,4.000000
1578521946.693598,18.000000,0.000000,-70.300003,-6.171369,-224.285675,42.605179,-10.744053,-35.133335,-11.909277,1.691053,35.566563,-50.623405,75.674049,-45.420834,19.026262,11.142571,5.534309,19.411646,10.493515,-16.074930,105.086235,-7.737280,4.602586,15.515151,-3.332994,-4.615318,-10.184342,18.076632,4.245383,7.551239,-9.740273,-33.273838,92.918465,-213.948639,0.000000,177.000000,-1.000000,,,,0.000000,4.000000,4.000000,4.000000,4.000000,4.000000,4.000000,4.000000,4.000000,4.000000,3.000000,4.000000,4.000000,4.000000,4.000000,4.000000,4.000000,4.000000,3.000000,4.000000,4.000000,4.000000,4.000000,4.000000,4.000000,4.000000,4.000000,4.000000,4.000000,4.000000,4.000000,3.000000,4.000000
1578521946.701448,19.000000,0.000000,-79.973289,-6.678018,-225.599854,41.536934,-9.194847,-35.098202,-11.384547,1.689362,22.197660,-62.367657,50.982994,-46.401054,18.494415,11.131429,6.554416,25.546082,9.457380,-11.443471,96.776024,-9.268004,4.085163,11.909892,12.567775,12.825194,9.313022,16.007273,8.343701,14.723175,-8.704892,-31.189281,94.876831,-213.734695,0.000000,180.000000,-1.000000,,,,0.000000,4.000000,4.000000,4.000000,4.000000,4.000000,4.000000,4.000000,4.000000,4.000000,3.000000,4.000000,4.000000,4.000000,4.000000,4.000000,4.000000,4.000000,3.000000,4.000000,4.000000,4.000000,4.000000,4.000000,4.000000,4.000000,4.000000,4.000000,4.000000,4.000000,4.000000,3.000000,4.000000
1578521946.709298,20.000000,0.000000,-97.752396,-5.638515,-225.660172,42.480568,-7.126723,-35.028038,-10.849482,2.198806,6.782006,-84.795288,20.649284,-51.948299,15.381034,11.621998,-6.280225,30.104244,8.926681,-9.886749,88.385643,-36.427425,2.539048,-1.443659,32.526752,43.038532,46.197994,16.490145,6.271638,12.122461,-8.175695,-32.667446,93.146660,-210.230515,0.000000,221.000000,-1.000000,,,,0.000000,4.000000,4.000000,4.000000,4.000000,4.000000,4.000000,4.000000,4.000000,4.000000,3.000000,4.000000,4.000000,4.000000,4.000000,4.000000,4.000000,4.000000,3.000000,4.000000,4.000000,4.000000,4.000000,4.000000,4.000000,4.000000,4.000000,4.000000,4.000000,4.000000,4.000000,3.000000,4.000000
1578521946.717048,21.000000,0.000000,-95.090546,-7.171338,-227.485794,36.284241,-11.222160,-34.993011,-14.428376,-4.982880,5.749583,-85.736137,25.244020,-54.973274,11.775909,11.610375,-4.735483,13.151064,8.917753,-19.620451,90.348541,-30.237154,4.074971,-2.467856,17.622433,10.687800,13.844104,9.294168,0.624341,9.033416,-8.167521,-35.198883,93.053513,-215.661301,0.000000,157.000000,-1.000000,,,,0.000000,4.000000,4.000000,4.000000,4.000000,4.000000,4.000000,4.000000,4.000000,4.000000,3.000000,4.000000,4.000000,4.000000,4.000000,4.000000,4.000000,4.000000,3.000000,4.000000,4.000000,4.000000,4.000000,4.000000,4.000000,4.000000,4.000000,4.000000,4.000000,4.000000,4.000000,3.000000,4.000000
1578521946.724898,22.000000,0.000000,-98.585197,-15.882115,-235.463425,20.863340,-18.390425,-34.958019,-19.029333,-18.824051,-13.230526,-85.650398,8.808519,-53.892658,8.174390,7.496201,19.884638,4.419964,1.729349,-21.139294,85.129990,0.562315,3.558075,-3.491030,13.502246,-6.245965,-5.144099,-5.586921,-0.401925,9.537203,-7.646532,-38.753426,92.960457,-231.343079,0.000000,186.000000,-1.000000,,,,0.000000,4.000000,4.000000,4.000000,4.000000,4.000000,4.000000,4.000000,4.000000,4.000000,3.000000,4.000000,4.000000,4.000000,4.000000,4.000000,4.000000,4.000000,3.000000,4.000000,4.000000,4.000000,4.000000,4.000000,4.000000,4.000000,4.000000,4.000000,4.000000,4.000000,4.000000,4.000000,4.000000
1578521946.732648,23.000000,0.000000,-104.127640,-20.994438,-234.202332,21.868118,-16.320753,-34.923061,-19.010303,-25.471893,-11.678834,-79.410904,8.286890,-53.838764,4.576472,1.847679,14.736547,6.979646,-6.477509,-20.605333,65.044853,2.613034,-2.599329,-6.051641,20.668230,11.196178,10.245661,0.572512,2.675400,10.040486,-8.151706,-40.765957,92.867493,-230.086105,0.000000,221.000000,-1.000000,,,,0.000000,4.000000,4.000000,4.000000,4.000000,4.000000,4.000000,4.000000,4.000000,4.000000,3.000000,4.000000,4.000000,4.000000,4.000000,4.000000,4.000000,4.000000,3.000000,4.000000,4.000000,4.000000,4.000000,4.000000,4.000000,4.000000,4.000000,4.000000,4.000000,4.000000,4.000000,4.000000,4.000000
1578521946.740498,24.000000,0.000000,-99.920944,-16.358059,-223.711716,35.179585,-11.176228,-34.888138,-17.965651,-23.395140,13.461050,-64.972519,36.483730,-58.913132,-0.556310,-0.205450,-17.585882,6.972667,-7.496673,-22.123190,55.749043,-29.697271,-10.801858,-5.532769,21.673204,9.646522,13.312338,14.930914,4.211186,10.030446,-8.143555,-40.212368,94.313087,-211.907288,0.000000,110.000000,-1.000000,,,,0.000000,4.000000,4.000000,4.000000,4.000000,4.000000,4.000000,4.000000,4.000000,4.000000,3.000000,4.000000,4.000000,4.000000,4.000000,4.000000,4.000000,4.000000,2.000000,4.000000,4.000000,4.000000,4.000000,4.000000,4.000000,4.000000,4.000000,4.000000,4.000000,4.000000,4.000000,4.000000,4.000000
1578521946.748248,25.000000,0.000000,-98.795387,-12.751958,-220.411072,37.708508,-11.165051,-34.853249,-18.973328,-23.884565,14.473230,-62.343441,44.652378,-60.905502,-1.068574,0.307576,-37.568295,11.068258,-5.437894,-15.434400,75.693291,-61.975266,-12.842339,-7.065698,19.600248,21.431746,22.016973,6.710855,-1.434050,1.815287,-8.135411,-40.684978,88.064934,-208.618469,0.000000,167.000000,-1.000000,,,,0.000000,4.000000,4.000000,4.000000,4.000000,4.000000,4.000000,4.000000,4.000000,4.000000,3.000000,4.000000,4.000000,4.000000,4.000000,4.000000,4.000000,4.000000,2.000000,4.000000,4.000000,4.000000,4.000000,4.000000,4.000000,4.000000,4.000000,4.000000,4.000000,4.000000,4.000000,4.000000,4.000000
1578521946.756098,26.000000,0.000000,-100.235046,-14.277667,-224.293228,33.568233,-10.641066,-34.818398,-17.415892,-24.886322,0.612603,-69.460587,29.735929,-55.716389,4.060700,3.897012,-12.402522,23.364882,-4.406815,-8.239478,99.207344,-67.554314,-11.291035,-8.597094,9.324238,54.230827,45.584702,-5.603549,-3.483898,-8.442939,-10.178557,-40.644291,82.848663,-215.589340,0.000000,182.000000,-1.000000,,,,0.000000,4.000000,4.000000,4.000000,4.000000,4.000000,4.000000,4.000000,4.000000,4.000000,3.000000,4.000000,4.000000,4.000000,4.000000,4.000000,4.000000,4.000000,2.000000,4.000000,4.000000,4.000000,4.000000,4.000000,4.000000,4.000000,4.000000,4.000000,4.000000,4.000000,4.000000,4.000000,4.000000
1578521946.763848,27.000000,0.000000,-96.032249,-14.263390,-224.068939,33.534664,-8.066322,-34.783577,-11.757450,-21.271692,0.099170,-68.365486,21.501064,-46.429905,7.646383,9.534141,20.430393,31.546646,-2.863946,-7.718418,101.672241,-34.666248,-9.228461,-3.973112,-6.582522,40.843262,36.308346,0.555901,1.647791,-8.947316,-11.706841,-40.090828,87.381195,-214.348099,0.000000,172.000000,-1.000000,,,,0.000000,4.000000,4.000000,4.000000,4.000000,4.000000,4.000000,4.000000,4.000000,4.000000,3.000000,4.000000,4.000000,4.000000,4.000000,4.000000,4.000000,4.000000,2.000000,4.000000,4.000000,4.000000,4.000000,4.000000,4.000000,4.000000,4.000000,4.000000,4.000000,4.000000,4.000000,4.000000,4.000000
1578521946.771698,28.000000,0.000000,-96.449036,-13.223485,-223.332047,31.449850,-12.673640,-35.261616,-10.720052,-21.763241,1.124712,-73.425323,24.043667,-42.793732,7.125916,8.498965,31.179193,22.284330,-1.835442,-9.761982,93.878258,-1.811070,-7.680771,-1.917857,1.116368,8.494728,7.554090,5.683550,3.697425,-4.835804,-12.207954,-40.563557,87.293816,-213.620941,0.000000,185.000000,-1.000000,,,,0.000000,4.000000,4.000000,4.000000,4.000000,4.000000,4.000000,4.000000,4.000000,4.000000,3.000000,4.000000,4.000000,4.000000,4.000000,4.000000,4.000000,4.000000,2.000000,4.000000,4.000000,4.000000,4.000000,4.000000,4.000000,4.000000,4.000000,4.000000,4.000000,4.000000,4.000000,4.000000,4.000000
1578521946.779448,29.000000,0.000000,-103.532074,-13.210261,-223.108719,27.828655,-18.814814,-37.277634,-17.375999,-28.408144,-1.953336,-89.249336,31.199110,-59.674015,7.118790,0.285338,-1.159678,3.287686,-3.372068,-15.393246,81.989510,-10.014387,-7.673090,-4.480042,20.089611,3.358028,1.905510,-0.475979,0.103984,-5.856610,-11.682925,-40.010174,77.975754,-219.561157,0.000000,191.000000,-1.000000,,,,0.000000,4.000000,4.000000,4.000000,4.000000,4.000000,4.000000,4.000000,4.000000,4.000000,3.000000,4.000000,4.000000,4.000000,4.000000,4.000000,4.000000,4.000000,2.000000,4.000000,4.000000,4.000000,4.000000,4.000000,4.000000,4.000000,4.000000,4.000000,4.000000,4.000000,4.000000,4.000000,4.000000
1578521946.787298,30.000000,0.000000,-105.479828,-14.735513,-222.372787,23.698263,-19.308819,-39.804459,-23.512468,-32.482300,-4.515485,-88.647263,32.193550,-85.768188,7.111671,-6.381614,-33.466209,1.233117,-6.958439,-20.506058,70.112648,-18.209501,-8.178238,-6.526843,12.890034,14.636722,6.518990,-4.578067,-0.408941,-6.876394,-11.671243,-35.867599,74.308037,-221.905701,0.000000,182.000000,-1.000000,,,,0.000000,4.000000,4.000000,4.000000,4.000000,4.000000,4.000000,4.000000,4.000000,4.000000,3.000000,4.000000,4.000000,4.000000,4.000000,4.000000,4.000000,4.000000,2.000000,4.000000,4.000000,4.000000,4.000000,4.000000,4.000000,4.000000,4.000000,4.000000,4.000000,4.000000,4.000000,4.000000,4.000000
1578521946.795048,31.000000,0.000000,-103.323067,-13.182316,-227.278625,18.033539,-18.263868,-37.713375,-22.976135,-29.372894,-13.228918,-71.635544,17.289564,-79.528572,7.617380,-2.785489,-0.612232,20.719063,-6.951481,-13.818885,71.068176,-23.832317,-7.144419,-4.981855,-0.969010,25.391315,18.307343,-3.035028,0.617109,-4.818236,-11.659572,-31.729166,71.156799,-220.658157,0.000000,200.000000,-1.000000,,,,0.000000,4.000000,4.000000,4.000000,4.000000,4.000000,4.000000,4.000000,4.000000,4.000000,3.000000,4.000000,4.000000,4.000000,4.000000,4.000000,4.000000,4.000000,2.000000,4.000000,4.000000,4.000000,4.000000,4.000000,4.000000,4.000000,4.000000,4.000000,4.000000,4.000000,4.000000,4.000000,4.000000
1578521946.802898,32.000000,0.000000,-103.732559,-13.169133,-236.282104,15.964224,-18.245605,-32.547455,-16.286493,-23.702496,-17.831074,-62.333138,1.887658,-53.295197,8.122583,3.883963,32.208893,23.775267,-4.380427,-13.292245,72.022751,-52.526432,-8.675735,-3.951232,0.570421,35.622334,31.109549,-2.519172,-1.434790,-6.864700,-11.647912,-32.210258,63.393337,-220.437500,8064.000000,0.000000,-1.000000,,,,0.000000,4.000000,4.000000,4.000000,4.000000,4.000000,4.000000,4.000000,4.000000,4.000000,3.000000,4.000000,4.000000,4.000000,4.000000,4.000000,4.000000,4.000000,2.000000,4.000000,4.000000,4.000000,4.000000,4.000000,4.000000,4.000000,4.000000,4.000000,4.000000,4.000000,4.000000,4.000000,4.000000
1578521946.810648,33.000000,0.000000,-104.141647,-20.335451,-238.609924,18.512362,-19.253000,-33.027729,-15.757386,-23.678793,-12.172217,-67.399010,7.013976,-57.344467,4.011897,-5.350690,1.920274,-5.479278,-10.017072,-34.304592,52.463547,-68.371346,-14.308085,-8.562665,-3.019893,19.689276,14.155361,-3.542294,-3.484637,-10.447578,-11.636264,-34.742149,58.714561,-220.729874,8064.000000,0.000000,-1.000000,,,,0.000000,4.000000,4.000000,4.000000,4.000000,4.000000,4.000000,4.000000,4.000000,4.000000,3.000000,4.000000,4.000000,4.000000,4.000000,4.000000,4.000000,4.000000,2.000000,4.000000,4.000000,4.000000,4.000000,4.000000,4.000000,4.000000,4.000000,4.000000,4.000000,4.000000,4.000000,4.000000,4.000000
1578521946.818497,34.000000,0.000000,-104.037506,-23.392038,-236.832855,18.493849,-22.310671,-38.122906,-22.921116,-26.219217,-13.185686,-77.588020,24.955681,-73.184555,-1.633141,-15.088929,-25.261133,-17.268669,-14.109619,-41.449776,44.718777,-44.200409,-14.293777,-14.195128,-11.222002,9.413177,2.346334,-3.025931,-3.993973,-3.257644,-11.624628,-36.245869,57.630203,-219.996323,8064.000000,0.000000,-1.000000,,,,0.000000,4.000000,4.000000,4.000000,4.000000,4.000000,4.000000,4.000000,4.000000,4.000000,3.000000,4.000000,4.000000,4.000000,4.000000,4.000000,4.000000,4.000000,2.000000,4.000000,4.000000,4.000000,4.000000,4.000000,4.000000,4.000000,4.000000,4.000000,4.000000,4.000000,4.000000,4.000000,4.000000
1578521946.826248,35.000000,0.000000,-102.395012,-16.701981,-237.108841,18.475355,-18.185795,-39.110424,-18.282810,-25.167356,-17.275064,-82.638634,26.469185,-59.778042,2.983877,2.362057,7.584641,11.466547,1.289106,-17.305763,72.366364,-22.104925,-3.510253,-7.001446,-4.544113,38.121712,27.472193,-3.535726,-2.964338,8.540485,-11.613003,-36.209625,52.957188,-219.776337,8064.000000,0.000000,-1.000000,,,,0.000000,4.000000,4.000000,4.000000,4.000000,4.000000,4.000000,4.000000,4.000000,4.000000,3.000000,4.000000,4.000000,4.000000,4.000000,4.000000,4.000000,4.000000,2.000000,4.000000,4.000000,4.000000,4.000000,4.000000,4.000000,4.000000,4.000000,4.000000,4.000000,4.000000,4.000000,4.000000,4.000000
1578521946.834097,36.000000,0.000000,-99.728516,-12.582714,-237.384552,21.020983,-10.988122,-37.532852,-5.956835,-22.578087,-8.539841,-83.068817,7.981178,-43.820827,7.596277,18.257132,27.064236,23.249952,11.544228,-11.134610,81.011948,-22.595640,0.595821,-1.866240,7.255303,34.493847,24.367798,-3.532190,-0.397271,9.044765,-11.601390,-36.173416,50.852951,-219.556549,8064.000000,0.000000,-1.000000,,,,0.000000,4.000000,4.000000,4.000000,4.000000,4.000000,4.000000,4.000000,4.000000,4.000000,3.000000,4.000000,4.000000,4.000000,4.000000,4.000000,4.000000,4.000000,2.000000,4.000000,4.000000,4.000000,4.000000,4.000000,4.000000,4.000000,4.000000,4.000000,4.000000,4.000000,4.000000,4.000000,4.000000
1578521946.841847,37.000000,0.000000,-101.680069,-14.108593,-236.121536,22.538424,-13.541237,-38.008141,-6.976519,-22.555510,-1.351814,-84.011391,6.947556,-49.930851,0.409194,5.931182,1.908966,2.713882,1.276273,-32.661938,52.725807,-27.701250,-8.635544,-15.197706,8.786509,2.151660,-4.887340,-2.503017,-0.396874,2.881875,-12.102610,-36.137241,51.827740,-219.337006,8064.000000,0.000000,-1.000000,,,,0.000000,4.000000,4.000000,4.000000,4.000000,4.000000,4.000000,4.000000,4.000000,4.000000,3.000000,4.000000,4.000000,4.000000,4.000000,4.000000,4.000000,4.000000,2.000000,4.000000,4.000000,4.000000,4.000000,4.000000,4.000000,4.000000,4.000000,4.000000,4.000000,4.000000,4.000000,4.000000,4.000000
1578521946.849697,38.000000,0.000000,-102.091209,-14.094484,-236.398224,23.541527,-17.630260,-38.482952,-15.174671,-23.045774,-2.888923,-76.235069,32.068813,-52.957844,-2.668138,0.797045,-10.400635,10.916297,0.249355,-27.501070,60.365387,-27.673550,-5.549985,-18.259432,6.213620,20.098227,13.579086,-4.038975,-2.960579,1.853352,-11.064866,-36.101105,51.775909,-219.117661,8064.000000,0.000000,-1.000000,,,,0.000000,4.000000,4.000000,4.000000,4.000000,4.000000,4.000000,4.000000,4.000000,4.000000,3.000000,4.000000,4.000000,4.000000,4.000000,4.000000,4.000000,4.000000,2.000000,4.000000,4.000000,4.000000,4.000000,4.000000,4.000000,4.000000,4.000000,4.000000,4.000000,4.000000,4.000000,4.000000,4.000000
1578521946.857548,39.000000,0.000000,-99.425011,-13.054749,-235.136185,25.056446,-13.510065,-37.931648,-15.159496,-23.022728,-2.373214,-57.697296,41.780334,-48.802322,7.078120,14.129581,-3.210747,39.623329,14.608081,-1.832544,93.125534,-21.492029,8.814539,-3.369378,8.258688,51.873001,40.232174,-3.009295,-3.983260,2.877140,-8.489698,-36.577824,52.236954,-218.898544,8064.000000,0.000000,-1.000000,,,,0.000000,4.000000,4.000000,4.000000,4.000000,4.000000,4.000000,4.000000,4.000000,4.000000,3.000000,4.000000,4.000000,4.000000,4.000000,4.000000,4.000000,4.000000,2.000000,4.000000,4.000000,4.000000,4.000000,4.000000,4.000000,4.000000,4.000000,4.000000,4.000000,4.000000,4.000000,4.000000,4.000000
1578521946.865298,40.000000,0.000000,-98.812767,-13.554515,-233.362595,25.544210,-9.906812,-37.893715,-13.605875,-22.999706,1.218903,-54.562679,30.969324,-49.779160,12.712067,13.602632,8.587336,31.378578,14.593472,-4.394814,88.417023,-15.316691,6.754443,1.762197,14.404276,40.026257,28.397070,4.173201,-3.466456,1.335801,-7.455567,-35.515606,54.748821,-218.679642,8192.000000,0.000000,-1.000000,,,,0.000000,4.000000,4.000000,4.000000,4.000000,4.000000,4.000000,4.000000,4.000000,4.000000,3.000000,4.000000,4.000000,4.000000,4.000000,4.000000,4.000000,4.000000,2.000000,4.000000,4.000000,4.000000,4.000000,4.000000,4.000000,4.000000,4.000000,4.000000,4.000000,4.000000,4.000000,4.000000,4.000000
1578521946.873148,41.000000,0.000000,-99.739594,-13.540960,-231.590775,27.057127,-10.922546,-37.855824,-15.130731,-19.899782,1.217684,-66.302986,31.963995,-44.088356,9.622432,6.409542,27.553106,10.321558,6.886571,-15.672470,70.892708,-10.685989,-0.431799,-1.829309,17.979614,34.858025,28.881493,12.374156,-3.462990,1.334465,-7.960932,-35.480087,56.232533,-218.460968,8064.000000,0.000000,-1.000000,,,,0.000000,4.000000,4.000000,4.000000,4.000000,4.000000,4.000000,4.000000,4.000000,4.000000,3.000000,4.000000,4.000000,4.000000,4.000000,4.000000,4.000000,4.000000,2.000000,4.000000,4.000000,4.000000,4.000000,4.000000,4.000000,4.000000,4.000000,4.000000,4.000000,4.000000,4.000000,4.000000,4.000000
1578521946.880898,42.000000,0.000000,-98.101395,-13.527419,-230.846359,26.004429,-10.911623,-37.817966,-14.089959,-18.854242,0.703646,-75.980270,37.573055,-39.428883,11.151271,12.556978,28.038374,18.516365,8.418146,-10.015772,84.667969,-6.059919,4.184018,1.762264,18.474457,37.387268,30.903894,12.874602,-3.459527,2.358772,-7.952971,-39.547173,55.663479,-218.242508,8064.000000,0.000000,-1.000000,,,,0.000000,4.000000,4.000000,4.000000,4.000000,4.000000,4.000000,4.000000,4.000000,4.000000,3.000000,4.000000,4.000000,4.000000,4.000000,4.000000,4.000000,4.000000,2.000000,4.000000,4.000000,4.000000,4.000000,4.000000,4.000000,4.000000,4.000000,4.000000,4.000000,4.000000,4.000000,4.000000,4.000000
1578521946.888748,43.000000,0.000000,-101.593033,-13.513892,-231.641159,20.337399,-11.926353,-37.780148,-16.127151,-24.989235,0.702942,-88.724808,28.304714,-53.235607,9.088838,11.518781,4.933413,23.626053,8.409728,-12.569859,76.890999,-24.515398,-5.050936,-4.393344,21.020084,17.349882,5.231965,7.733523,-3.456067,-0.720510,-7.432198,-43.097370,55.094997,-218.024261,8064.000000,0.000000,-1.000000,,,,0.000000,4.000000,4.000000,4.000000,4.000000,4.000000,4.000000,4.000000,4.000000,4.000000,3.000000,4.000000,4.000000,4.000000,4.000000,4.000000,4.000000,4.000000,2.000000,4.000000,4.000000,4.000000,4.000000,4.000000,4.000000,4.000000,4.000000,4.000000,4.000000,4.000000,4.000000,4.000000,4.000000
1578521946.896499,44.000000,0.000000,-109.696571,-13.500378,-230.383865,23.393986,-13.452888,-37.742367,-21.752050,-26.502707,0.702239,-96.841209,20.584103,-64.464424,0.874621,1.250851,-8.917674,11.294735,5.324395,-25.890623,45.532055,-56.798576,-20.943321,-15.671002,12.281116,26.563301,10.867758,4.648866,-3.452611,-4.822354,-7.937586,-43.054272,56.578362,-217.806244,8064.000000,0.000000,-1.000000,,,,0.000000,4.000000,4.000000,4.000000,4.000000,4.000000,4.000000,4.000000,4.000000,4.000000,3.000000,4.000000,4.000000,4.000000,4.000000,4.000000,4.000000,4.000000,2.000000,4.000000,4.000000,4.000000,4.000000,4.000000,4.000000,4.000000,4.000000,4.000000,4.000000,4.000000,4.000000,4.000000,4.000000
1578521946.904349,45.000000,0.000000,-108.048416,-13.486877,-225.538101,37.729565,-9.849691,-37.704628,-19.679016,-19.296717,2.239998,-82.385391,24.153261,-54.143547,2.412208,3.813703,-2.754911,10.770619,8.908814,-23.813450,59.332676,-38.280239,-7.076223,-8.988665,-3.628602,55.254684,43.164581,9.772423,-3.449158,-3.791890,-7.929649,-44.549679,59.598709,-217.588425,8064.000000,0.000000,-1.000000,,,,0.000000,4.000000,4.000000,4.000000,4.000000,4.000000,4.000000,4.000000,4.000000,4.000000,3.000000,4.000000,4.000000,4.000000,4.000000,4.000000,4.000000,4.000000,2.000000,4.000000,4.000000,4.000000,4.000000,4.000000,4.000000,4.000000,4.000000,4.000000,4.000000,4.000000,4.000000,4.000000,4.000000
1578521946.912099,46.000000,0.000000,-100.248055,-13.473391,-222.235641,42.820042,-6.762918,-37.666924,-12.479849,-14.662035,4.801861,-64.354294,26.180389,-43.832996,12.153385,14.066299,16.222204,17.939337,12.489649,-14.046046,83.375908,-5.421444,10.879571,2.815196,4.580155,38.276356,29.788084,14.890855,-3.958530,1.340107,-7.408898,-47.069233,62.616032,-217.370850,8064.000000,0.000000,-1.000000,,,,0.000000,4.000000,4.000000,4.000000,4.000000,4.000000,4.000000,4.000000,4.000000,4.000000,3.000000,4.000000,4.000000,4.000000,4.000000,4.000000,4.000000,4.000000,2.000000,4.000000,4.000000,4.000000,4.000000,4.000000,4.000000,4.000000,4.000000,4.000000,4.000000,4.000000,4.000000,4.000000,4.000000
1578521946.919949,47.000000,0.000000,-97.583710,-13.459917,-226.628784,35.597733,-9.320258,-37.629253,-9.903267,-15.673014,4.797059,-63.264294,23.077288,-45.840443,13.679693,15.590695,32.616238,17.408577,9.913057,-15.570462,62.779713,-26.441664,-2.464642,1.273919,22.011473,15.673976,5.142912,10.260580,-3.441751,2.364408,-10.478413,-47.022163,62.553417,-217.153473,8064.000000,0.000000,-1.000000,,,,0.000000,4.000000,4.000000,4.000000,4.000000,4.000000,4.000000,4.000000,4.000000,4.000000,3.000000,4.000000,4.000000,4.000000,4.000000,4.000000,4.000000,4.000000,2.000000,4.000000,4.000000,4.000000,4.000000,4.000000,4.000000,4.000000,4.000000,4.000000,4.000000,4.000000,4.000000,4.000000,4.000000
1578521946.927699,48.000000,0.000000,-99.024582,-13.446458,-231.017548,31.972393,-11.362220,-37.591625,-11.431825,-16.170162,3.253800,-64.739494,19.977287,-46.307423,10.076270,14.036643,20.275928,23.032194,7.851862,-18.118994,53.998981,-58.722916,-17.846792,-2.829919,12.245872,26.940353,12.830077,3.583652,-3.438309,1.336402,-15.083319,-46.462318,60.952400,-217.449142,8064.000000,0.000000,-1.000000,,,,0.000000,4.000000,4.000000,4.000000,4.000000,4.000000,4.000000,4.000000,4.000000,4.000000,3.000000,4.000000,4.000000,4.000000,4.000000,4.000000,4.000000,4.000000,2.000000,4.000000,4.000000,4.000000,4.000000,4.000000,4.000000,4.000000,4.000000,4.000000,4.000000,4.000000,4.000000,4.000000,4.000000
1578521946.935549,49.000000,0.000000,-98.412743,-13.433011,-229.760895,32.966061,-11.350858,-37.554035,-10.907573,-15.128350,3.250547,-66.213211,25.598335,-45.748295,10.066194,11.971324,-1.282809,28.650187,7.844010,-13.998311,74.457802,-40.202652,-14.239202,-2.827089,-4.176631,32.554440,16.919811,3.067248,-5.486153,1.335066,-16.093876,-46.928677,66.019653,-218.257324,8064.000000,0.000000,-1.000000,,,,0.000000,4.000000,4.000000,4.000000,4.000000,4.000000,4.000000,4.000000,4.000000,4.000000,3.000000,4.000000,4.000000,4.000000,4.000000,4.000000,4.000000,4.000000,2.000000,4.000000,4.000000,4.000000,4.000000,4.000000,4.000000,4.000000,4.000000,4.000000,4.000000,4.000000,4.000000,4.000000,4.000000
1578521946.943299,50.000000,0.000000,-97.801506,-13.419578,-226.454208,32.933094,-11.339507,-37.516479,-10.383844,-15.626042,5.298578,-76.403412,39.418892,-47.241009,9.543307,8.882429,1.795397,13.749742,6.810525,-18.086876,64.126938,-7.341938,-9.609579,-4.362723,1.468571,28.932140,14.338788,4.089822,-2.403744,2.359372,-15.052142,-46.881748,75.184402,-215.987793,8064.000000,0.000000,-1.000000,,,,0.000000,4.000000,4.000000,4.000000,4.000000,4.000000,4.000000,4.000000,4.000000,4.000000,3.000000,4.000000,4.000000,4.000000,4.000000,4.000000,4.000000,4.000000,2.000000,4.000000,4.000000,4.000000,4.000000,4.000000,4.000000,4.000000,4.000000,4.000000,4.000000,4.000000,4.000000,4.000000,4.000000
1578521946.951149,51.000000,0.000000,-98.216522,-13.406158,-226.227753,32.387341,-10.815347,-37.478962,-10.886281,-15.610416,2.216357,-86.070595,38.353832,-52.321972,6.969661,7.335085,5.383346,-4.725546,4.752432,-27.299559,42.011528,-24.257673,-12.164072,-5.384002,12.749154,31.467310,20.991116,3.060091,3.239686,2.869833,-15.037089,-46.834869,77.160500,-216.797440,8064.000000,0.000000,-1.000000,,,,0.000000,4.000000,4.000000,4.000000,4.000000,4.000000,4.000000,4.000000,4.000000,4.000000,3.000000,4.000000,4.000000,4.000000,4.000000,4.000000,4.000000,4.000000,2.000000,4.000000,4.000000,4.000000,4.000000,4.000000,4.000000,4.000000,4.000000,4.000000,4.000000,4.000000,4.000000,4.000000,4.000000
1578521946.958899,52.000000,0.000000,-98.118309,-13.392753,-224.463058,32.867775,-11.317352,-37.441483,-10.875395,-16.107626,-0.862783,-88.035812,23.443682,-54.833755,6.449871,5.789289,-2.314346,6.561230,3.722039,-18.554312,60.431053,-52.951363,-10.100626,-5.891438,12.736404,31.948664,23.534227,5.108313,1.697985,0.815681,-15.534873,-46.275211,76.570518,-218.119110,8064.000000,0.000000,-1.000000,,,,0.000000,4.000000,4.000000,4.000000,4.000000,4.000000,4.000000,4.000000,4.000000,4.000000,3.000000,4.000000,4.000000,4.000000,4.000000,4.000000,4.000000,4.000000,2.000000,4.000000,4.000000,4.000000,4.000000,4.000000,4.000000,4.000000,4.000000,4.000000,4.000000,4.000000,4.000000,4.000000,4.000000
1578521946.966749,53.000000,0.000000,-98.020187,-13.379359,-217.059113,37.963112,-11.306035,-37.404041,-7.787597,-14.553058,11.445772,-75.127258,23.933058,-42.471230,6.956242,12.962987,14.611046,33.221336,5.256778,0.438602,84.986008,-35.975334,-1.372576,-4.859906,6.057002,44.737228,36.331207,16.385256,2.721928,2.866147,-15.519339,-44.177654,81.622154,-207.644577,8064.000000,0.000000,-1.000000,,,,0.000000,4.000000,4.000000,4.000000,4.000000,4.000000,4.000000,4.000000,4.000000,4.000000,3.000000,4.000000,4.000000,4.000000,4.000000,4.000000,4.000000,4.000000,2.000000,4.000000,4.000000,4.000000,4.000000,4.000000,4.000000,4.000000,4.000000,4.000000,4.000000,4.000000,4.000000,4.000000,4.000000
1578521946.974499,54.000000,0.000000,-97.922173,-13.365980,-210.688202,48.181561,-4.628062,-37.366638,-4.190065,-12.487223,28.357403,-51.975212,37.755280,-26.531321,11.051849,25.257717,39.724640,36.777859,10.892548,3.515087,85.926666,-7.734232,4.782642,-2.290943,10.153509,63.666851,58.346157,28.163742,14.514077,10.555589,-13.452537,-38.492451,87.181557,-191.539505,8192.000000,0.000000,-1.000000,,,,0.000000,4.000000,4.000000,4.000000,4.000000,4.000000,4.000000,4.000000,4.000000,4.000000,3.000000,4.000000,4.000000,4.000000,4.000000,4.000000,4.000000,4.000000,2.000000,4.000000,4.000000,4.000000,4.000000,4.000000,4.000000,4.000000,4.000000,4.000000,4.000000,4.000000,4.000000,4.000000,4.000000
1578521946.982349,55.000000,0.000000,-97.824249,-13.352614,-209.964691,52.748760,3.068874,-37.329273,-3.160234,-11.449094,27.816225,-47.307850,41.307266,-36.248379,13.604900,20.104254,25.838762,24.433388,10.881655,-4.693556,80.712532,-17.470087,1.188116,-4.339934,28.092073,50.782669,48.031403,30.186861,18.602127,9.519392,-11.387802,-32.300114,87.607201,-187.758209,8064.000000,0.000000,-1.000000,,,,0.000000,4.000000,4.000000,4.000000,4.000000,4.000000,4.000000,4.000000,4.000000,4.000000,3.000000,4.000000,4.000000,4.000000,4.000000,4.000000,4.000000,4.000000,2.000000,4.000000,4.000000,4.000000,4.000000,4.000000,4.000000,4.000000,4.000000,4.000000,4.000000,4.000000,4.000000,4.000000,4.000000
1578521946.990099,56.000000,0.000000,-97.726425,-13.339262,-210.267548,45.003704,3.065805,-37.291943,-3.669895,-11.950465,18.557640,-66.234901,42.291603,-58.263412,10.001552,3.161072,-2.905026,24.921776,4.716927,-10.842709,66.272842,-41.042362,-4.966918,-9.976621,30.628084,22.013939,16.188498,24.515648,8.839935,-0.233717,-11.376414,-30.729351,87.006767,-193.724304,8064.000000,0.000000,-1.000000,,,,0.000000,4.000000,4.000000,4.000000,4.000000,4.000000,4.000000,4.000000,4.000000,4.000000,3.000000,4.000000,4.000000,4.000000,4.000000,4.000000,4.000000,4.000000,2.000000,4.000000,4.000000,4.000000,4.000000,4.000000,4.000000,4.000000,4.000000,4.000000,4.000000,4.000000,4.000000,4.000000,4.000000
1578521946.997949,57.000000,0.000000,-97.628700,-13.325922,-210.057281,36.753574,-0.527005,-37.254650,-3.666225,-11.938515,18.026262,-75.399437,37.633926,-57.179508,6.914627,-1.970294,-2.902121,24.896852,-0.415995,-19.549814,43.642467,-40.488499,-9.064515,-13.556387,10.597456,17.376539,10.018463,18.337286,2.677250,-2.284765,-10.852218,-31.724262,87.432579,-196.607498,8064.000000,0.000000,-1.000000,,,,0.000000,4.000000,4.000000,4.000000,4.000000,4.000000,4.000000,4.000000,4.000000,4.000000,3.000000,4.000000,4.000000,4.000000,4.000000,4.000000,4.000000,4.000000,2.000000,4.000000,4.000000,4.000000,4.000000,4.000000,4.000000,4.000000,4.000000,4.000000,4.000000,4.000000,4.000000,4.000000,4.000000
1578521947.005699,58.000000,0.000000,-97.531067,-13.312596,-209.334412,34.665539,-0.013657,-37.217396,-3.662559,-11.926577,19.546698,-73.272751,25.801420,-44.814636,6.394892,-0.429862,8.382833,19.230930,-0.415579,-19.530266,51.291134,-37.371086,-7.516989,-14.055652,2.381730,38.384804,30.521265,15.242026,3.700213,1.307263,-8.277263,-31.179718,86.832329,-196.410889,8320.000000,0.000000,-1.000000,,,,0.000000,4.000000,4.000000,4.000000,4.000000,4.000000,4.000000,4.000000,4.000000,4.000000,3.000000,4.000000,4.000000,4.000000,4.000000,4.000000,4.000000,4.000000,2.000000,4.000000,4.000000,4.000000,4.000000,4.000000,4.000000,4.000000,4.000000,4.000000,4.000000,4.000000,4.000000,4.000000,4.000000
1578521947.013549,59.000000,0.000000,-97.433540,-13.299284,-209.637894,36.682156,-0.013643,-37.180180,-3.658896,-11.914650,18.501509,-76.789223,31.416643,-44.769821,6.901318,1.109029,5.297526,34.596313,5.225862,-3.100479,84.060356,-46.051662,-0.329985,-6.862109,9.558835,66.038727,53.054848,14.201143,4.209334,1.305956,-7.243344,-31.148539,87.258316,-196.727310,8192.000000,0.000000,-1.000000,,,,0.000000,4.000000,4.000000,4.000000,4.000000,4.000000,4.000000,4.000000,4.000000,4.000000,3.000000,4.000000,4.000000,4.000000,4.000000,4.000000,4.000000,4.000000,2.000000,4.000000,4.000000,4.000000,4.000000,4.000000,4.000000,4.000000,4.000000,4.000000,4.000000,4.000000,4.000000,4.000000,4.000000
1578521947.021299,60.000000,0.000000,-97.336105,-13.285985,-209.428253,40.235214,0.499191,-37.142998,-3.655237,-11.902736,17.970188,-70.558586,42.154457,-45.750694,9.458519,8.800228,4.779408,51.997616,13.938585,5.107750,88.078857,-33.185101,6.337011,3.401164,11.087738,65.459869,49.412048,14.699762,5.743586,5.407214,-7.748921,-31.630211,87.171059,-197.043396,8064.000000,0.000000,-1.000000,,,,0.000000,4.000000,4.000000,4.000000,4.000000,4.000000,4.000000,4.000000,4.000000,4.000000,3.000000,4.000000,4.000000,4.000000,4.000000,4.000000,4.000000,4.000000,2.000000,4.000000,4.000000,4.000000,4.000000,4.000000,4.000000,4.000000,4.000000,4.000000,4.000000,4.000000,4.000000,4.000000,4.000000
1578521947.029149,61.000000,0.000000,-97.238770,-13.272698,-209.218826,43.271904,2.549973,-37.105854,-3.651582,-11.890833,16.926577,-56.129055,26.214867,-40.576736,13.551624,15.458095,16.569500,39.637928,16.488749,-7.717870,60.298473,-11.100633,7.356316,5.961865,15.692035,37.189281,21.157507,14.685062,7.276304,12.068474,-7.741173,-31.598581,83.494148,-196.333542,8192.000000,0.000000,-1.000000,,,,0.000000,4.000000,4.000000,4.000000,4.000000,4.000000,4.000000,4.000000,4.000000,4.000000,3.000000,4.000000,4.000000,4.000000,4.000000,4.000000,4.000000,4.000000,2.000000,4.000000,4.000000,4.000000,4.000000,4.000000,4.000000,4.000000,4.000000,4.000000,4.000000,4.000000,4.000000,4.000000,4.000000
1578521947.036899,62.000000,0.000000,-97.141525,-13.259426,-209.009613,43.741451,3.573065,-37.068748,-3.647930,-11.878942,14.858368,-61.713955,15.932242,-44.125904,14.563714,14.929815,10.399085,23.188032,15.446619,-13.351178,59.212532,-16.217737,6.836139,5.955904,24.907112,34.075169,17.546606,13.644736,5.730566,13.082046,-9.271893,-33.618263,79.308090,-196.137207,8064.000000,0.000000,-1.000000,,,,0.000000,4.000000,4.000000,4.000000,4.000000,4.000000,4.000000,4.000000,4.000000,4.000000,3.000000,4.000000,4.000000,4.000000,4.000000,4.000000,4.000000,4.000000,2.000000,4.000000,4.000000,4.000000,4.000000,4.000000,4.000000,4.000000,4.000000,4.000000,4.000000,4.000000,4.000000,4.000000,4.000000
1578521947.044749,63.000000,0.000000,-97.044388,-13.246166,-208.800598,42.672070,4.595132,-37.031681,-4.157103,-12.379884,14.330688,-70.370186,41.044514,-51.774086,14.036329,14.402065,-9.611314,29.831511,15.943993,-3.081417,84.794350,-25.432289,7.854944,7.488409,22.318102,52.502632,38.554703,15.682374,3.673553,13.581784,-11.313903,-35.635929,79.228775,-196.453888,8192.000000,0.000000,-1.000000,,,,0.000000,4.000000,4.000000,4.000000,4.000000,4.000000,4.000000,4.000000,4.000000,4.000000,3.000000,4.000000,4.000000,4.000000,4.000000,4.000000,4.000000,4.000000,2.000000,4.000000,4.000000,4.000000,4.000000,4.000000,4.000000,4.000000,4.000000,4.000000,4.000000,4.000000,4.000000,4.000000,4.000000
1578521947.052499,64.000000,0.000000,-96.947342,-13.232921,-208.591797,43.655041,7.154640,-36.994648,-3.640125,-11.854683,14.829179,-59.017765,58.439369,-49.158211,14.535113,15.413304,3.731631,37.493988,14.389587,-1.027053,78.042885,-15.150446,5.282986,1.327074,15.116297,45.783463,35.439224,18.230795,3.669880,12.029741,-11.302589,-35.600292,79.662369,-195.744614,0.000000,213.000000,-1.000000,,,,0.000000,4.000000,4.000000,4.000000,4.000000,4.000000,4.000000,4.000000,4.000000,4.000000,3.000000,4.000000,4.000000,4.000000,4.000000,4.000000,4.000000,4.000000,2.000000,4.000000,4.000000,4.000000,4.000000,4.000000,4.000000,4.000000,4.000000,4.000000,4.000000,4.000000,4.000000,4.000000,4.000000
1578521947.060349,65.000000,0.000000,-97.363213,-13.219687,-208.896027,43.611385,5.609024,-36.957653,-2.610844,-11.842828,14.814349,-51.266441,41.457851,-41.929565,15.033400,15.397891,31.420206,32.328289,12.323915,-9.231154,48.734074,-6.930168,2.713601,-4.828099,14.075540,33.429985,22.070450,15.135640,3.666210,4.838224,-11.291286,-35.051872,72.403221,-195.036041,0.000000,140.000000,-1.000000,,,,0.000000,4.000000,4.000000,4.000000,4.000000,4.000000,4.000000,4.000000,4.000000,4.000000,3.000000,4.000000,4.000000,4.000000,4.000000,4.000000,4.000000,4.000000,2.000000,4.000000,4.000000,4.000000,4.000000,4.000000,4.000000,4.000000,4.000000,4.000000,4.000000,4.000000,4.000000,4.000000,4.000000
1578521947.068099,66.000000,0.000000,-96.753029,-13.206468,-210.225586,39.465210,4.064953,-36.920696,-5.685156,-13.882267,14.799535,-60.958763,12.698445,-44.451736,13.479904,13.844031,17.542633,20.501087,11.285951,-13.324488,55.352005,-6.923237,3.736528,1.843396,15.087106,32.883736,21.022739,10.505120,3.149723,2.269283,-11.279995,-35.529640,63.612869,-197.917938,0.000000,171.000000,-1.000000,,,,0.000000,4.000000,4.000000,4.000000,4.000000,4.000000,4.000000,4.000000,4.000000,4.000000,3.000000,4.000000,4.000000,4.000000,4.000000,4.000000,4.000000,4.000000,2.000000,4.000000,4.000000,4.000000,4.000000,4.000000,4.000000,4.000000,4.000000,4.000000,4.000000,4.000000,4.000000,4.000000,4.000000
1578521947.075949,67.000000,0.000000,-93.579353,-13.193261,-212.579468,35.323177,4.573709,-36.883778,-8.243574,-14.894026,14.784736,-65.000366,-3.724510,-46.971386,13.979245,13.830188,3.166116,14.326740,8.197742,-12.798343,74.271011,-20.249647,0.655868,5.431296,15.072019,15.414954,8.181204,11.007436,3.659394,4.831117,-11.268715,-35.494110,60.472332,-202.335403,0.000000,211.000000,-1.000000,,,,0.000000,4.000000,4.000000,4.000000,4.000000,4.000000,4.000000,4.000000,4.000000,4.000000,3.000000,4.000000,4.000000,4.000000,4.000000,4.000000,4.000000,4.000000,2.000000,4.000000,4.000000,4.000000,4.000000,4.000000,4.000000,4.000000,4.000000,4.000000,4.000000,4.000000,4.000000,4.000000,4.000000
1578521947.083699,68.000000,0.000000,-92.460136,-13.180068,-214.930984,35.287857,-2.097532,-36.846893,-3.619946,-12.827850,14.769951,-61.345627,7.048446,-40.770569,14.990907,14.841998,32.393719,28.158567,4.599801,-10.221441,58.299305,-49.972988,-7.549916,-5.856186,12.492844,12.322617,6.634561,10.483607,3.142914,1.749362,-11.770267,-34.945797,58.873398,-203.158707,0.000000,219.000000,-1.000000,,,,0.000000,4.000000,4.000000,4.000000,4.000000,4.000000,4.000000,4.000000,4.000000,4.000000,3.000000,4.000000,4.000000,4.000000,4.000000,4.000000,4.000000,4.000000,2.000000,4.000000,4.000000,4.000000,4.000000,4.000000,4.000000,4.000000,4.000000,4.000000,4.000000,4.000000,4.000000,4.000000,4.000000
1578521947.091549,69.000000,0.000000,-94.931778,-13.166888,-215.228882,35.765388,-10.813383,-36.810047,-6.693249,-11.276561,14.755180,-64.361206,31.143961,-49.447750,9.334890,7.647669,24.669018,35.822716,2.543919,-13.800963,35.164082,-59.666603,-12.670571,-14.568279,3.762402,45.130806,36.884338,7.396201,3.652592,-2.867772,-14.322599,-34.910851,56.250423,-201.417084,0.000000,211.000000,-1.000000,,,,0.000000,4.000000,4.000000,4.000000,4.000000,4.000000,4.000000,4.000000,4.000000,4.000000,3.000000,4.000000,4.000000,4.000000,4.000000,4.000000,4.000000,4.000000,2.000000,4.000000,4.000000,4.000000,4.000000,4.000000,4.000000,4.000000,4.000000,4.000000,4.000000,4.000000,4.000000,4.000000,4.000000
1578521947.099399,70.000000,0.000000,-96.375305,-13.153721,-214.500839,34.703983,-12.341031,-36.773235,-20.019888,-11.778105,14.740425,-70.450691,40.343586,-75.039330,0.607606,-5.693312,-7.663344,13.222792,0.490093,-25.582035,37.693020,-46.273605,-11.632259,-11.989608,0.168896,46.624138,36.847454,9.952908,5.187401,0.212019,-15.333918,-34.875938,56.706993,-199.164383,0.000000,218.000000,-1.000000,,,,0.000000,4.000000,4.000000,4.000000,4.000000,4.000000,4.000000,4.000000,4.000000,4.000000,3.000000,4.000000,4.000000,4.000000,4.000000,4.000000,4.000000,4.000000,2.000000,4.000000,4.000000,4.000000,4.000000,4.000000,4.000000,4.000000,4.000000,4.000000,4.000000,4.000000,4.000000,4.000000,4.000000
1578521947.107149,71.000000,0.000000,-96.278931,-13.140567,-214.799149,35.182098,-11.303049,-36.736462,-18.974228,-12.279147,14.725685,-69.354599,40.303242,-73.938644,2.145460,-1.072234,-13.296706,1.414697,2.540885,-26.582094,54.065586,-39.047844,-7.005242,-5.823772,4.271291,14.269821,4.502913,15.071159,7.233495,1.750269,-14.805763,-34.841064,57.163105,-197.939575,0.000000,217.000000,-1.000000,,,,0.000000,4.000000,4.000000,4.000000,4.000000,4.000000,4.000000,4.000000,4.000000,4.000000,3.000000,4.000000,4.000000,4.000000,4.000000,4.000000,4.000000,4.000000,2.000000,4.000000,4.000000,4.000000,4.000000,4.000000,4.000000,4.000000,4.000000,4.000000,4.000000,4.000000,4.000000,4.000000,4.000000
1578521947.114999,72.000000,0.000000,-95.669830,-13.127427,-214.584351,35.659737,-10.778925,-36.699726,-5.109100,-12.266868,12.659678,-65.695496,38.724480,-41.044193,9.322803,19.441658,19.537104,23.977385,4.589626,-11.683717,65.806389,-28.239565,-3.408494,-4.279487,7.856764,17.332474,10.652256,14.543268,7.226262,1.235698,-14.790957,-34.806221,52.490559,-198.254456,0.000000,191.000000,-1.000000,,,,0.000000,4.000000,4.000000,4.000000,4.000000,4.000000,4.000000,4.000000,4.000000,4.000000,3.000000,4.000000,4.000000,4.000000,4.000000,4.000000,4.000000,4.000000,2.000000,4.000000,4.000000,4.000000,4.000000,4.000000,4.000000,4.000000,4.000000,4.000000,4.000000,4.000000,4.000000,4.000000,4.000000
1578521947.122750,73.000000,0.000000,-96.086983,-13.114299,-211.292847,34.085617,-4.614300,-36.663025,-2.539888,-11.741780,11.108556,-67.168266,29.967806,-34.849304,8.800659,18.396576,35.415001,28.055971,1.508113,-7.569468,55.484173,-20.519018,-9.046111,-9.916233,7.336086,49.110012,38.333912,13.503083,7.219036,2.260103,-15.288987,-34.771416,49.873966,-198.056213,0.000000,178.000000,-1.000000,,,,0.000000,4.000000,4.000000,4.000000,4.000000,4.000000,4.000000,4.000000,4.000000,4.000000,3.000000,4.000000,4.000000,4.000000,4.000000,4.000000,4.000000,4.000000,2.000000,4.000000,4.000000,4.000000,4.000000,4.000000,4.000000,4.000000,4.000000,4.000000,4.000000,4.000000,4.000000,4.000000,4.000000
1578521947.130600,74.000000,0.000000,-97.529358,-13.101185,-209.543091,36.615631,1.031340,-36.626362,-7.665553,-12.242859,10.584627,-66.075455,29.425016,-58.917019,3.663653,-3.673102,3.071895,2.899710,-2.595959,-17.305489,33.890228,-39.985680,-18.780655,-16.060163,4.251827,38.804493,24.449423,15.028042,7.211816,-0.819080,-14.760878,-34.736645,51.875374,-197.345337,0.000000,208.000000,-1.000000,,,,0.000000,4.000000,4.000000,4.000000,4.000000,4.000000,4.000000,4.000000,4.000000,4.000000,3.000000,4.000000,4.000000,4.000000,4.000000,4.000000,4.000000,4.000000,2.000000,4.000000,4.000000,4.000000,4.000000,4.000000,4.000000,4.000000,4.000000,4.000000,4.000000,4.000000,4.000000,4.000000,4.000000
1578521947.138350,75.000000,0.000000,-99.483109,-13.088084,-210.872009,41.707222,0.004667,-36.589737,-7.657888,-12.743437,10.574042,-58.317074,41.703285,-58.345280,2.634348,-6.233532,-0.008100,1.871170,-4.131824,-19.339466,40.523006,-48.150822,-15.684951,-15.531282,0.657832,12.611842,0.322410,12.448912,7.204605,-4.920825,-12.694835,-34.701908,52.849140,-197.147980,0.000000,209.000000,-1.000000,,,,0.000000,4.000000,4.000000,4.000000,4.000000,4.000000,4.000000,4.000000,4.000000,4.000000,3.000000,4.000000,4.000000,4.000000,4.000000,4.000000,4.000000,4.000000,2.000000,4.000000,4.000000,4.000000,4.000000,4.000000,4.000000,4.000000,4.000000,4.000000,4.000000,4.000000,4.000000,4.000000,4.000000
1578521947.146200,76.000000,0.000000,-99.896446,-13.074996,-207.071396,43.203976,0.004663,-36.553146,-6.111768,-8.628129,13.127571,-54.669010,48.841068,-36.235653,3.657355,9.670137,27.684216,26.484684,-1.563590,-13.166280,61.508125,-28.102671,-5.925676,-16.541391,0.657174,29.009487,18.270805,10.898001,7.710221,-1.838981,-10.630857,-34.667206,54.847572,-195.925201,0.000000,209.000000,-1.000000,,,,0.000000,4.000000,4.000000,4.000000,4.000000,4.000000,4.000000,4.000000,4.000000,4.000000,3.000000,4.000000,4.000000,4.000000,4.000000,4.000000,4.000000,4.000000,2.000000,4.000000,4.000000,4.000000,4.000000,4.000000,4.000000,4.000000,4.000000,4.000000,4.000000,4.000000,4.000000,4.000000,4.000000
1578521947.153951,77.000000,0.000000,-99.283730,-13.061921,-200.197662,44.186413,3.081581,-36.516594,-6.618477,-1.952835,18.242649,-54.614342,48.279408,-29.532751,3.140877,16.327133,34.323196,38.253071,5.104640,-10.076191,63.497898,-30.125849,-3.868468,-17.037672,0.143696,61.800991,51.073048,16.528128,7.189690,1.752602,-11.133048,-34.632538,62.997852,-192.652344,0.000000,228.000000,-1.000000,,,,0.000000,4.000000,4.000000,4.000000,4.000000,4.000000,4.000000,4.000000,4.000000,4.000000,3.000000,4.000000,4.000000,4.000000,4.000000,4.000000,4.000000,4.000000,2.000000,4.000000,4.000000,4.000000,4.000000,4.000000,4.000000,4.000000,4.000000,4.000000,4.000000,4.000000,4.000000,4.000000,4.000000
1578521947.161800,78.000000,0.000000,-99.184448,-13.048859,-199.484634,52.347355,3.078500,-36.480076,-7.637500,0.100400,23.865431,-54.046909,41.564461,-33.605782,3.137736,14.772346,26.083746,35.650715,11.766202,-12.630217,61.383118,-37.275211,-4.377420,-7.789865,-1.907730,58.149445,50.509155,24.716728,7.182500,1.750849,-11.121915,-34.597904,68.575882,-188.357132,0.000000,211.000000,-1.000000,,,,0.000000,4.000000,4.000000,4.000000,4.000000,4.000000,4.000000,4.000000,4.000000,4.000000,3.000000,4.000000,4.000000,4.000000,4.000000,4.000000,4.000000,4.000000,2.000000,4.000000,4.000000,4.000000,4.000000,4.000000,4.000000,4.000000,4.000000,4.000000,4.000000,4.000000,4.000000,4.000000,4.000000
1578521947.169550,79.000000,0.000000,-99.085266,-13.035810,-203.900543,54.346291,0.511318,-36.443596,-7.117042,-0.412521,22.815926,-61.685169,23.574179,-35.623459,3.134598,11.680650,17.852535,24.333012,13.292897,-19.284254,57.731991,-15.699473,-2.834581,-3.679510,8.350589,25.783604,18.150953,28.794577,7.688138,2.261919,-11.110792,-34.050488,67.994484,-188.168777,0.000000,207.000000,-1.000000,,,,0.000000,4.000000,4.000000,4.000000,4.000000,4.000000,4.000000,4.000000,4.000000,4.000000,3.000000,4.000000,4.000000,4.000000,4.000000,4.000000,4.000000,4.000000,2.000000,4.000000,4.000000,4.000000,4.000000,4.000000,4.000000,4.000000,4.000000,4.000000,4.000000,4.000000,4.000000,4.000000,4.000000
1578521947.177400,80.000000,0.000000,-98.986176,-13.022774,-207.799194,43.009892,-0.002013,-37.945614,-6.597104,-1.437749,12.023878,-73.418358,12.268553,-42.767323,1.593002,1.925380,14.244939,10.462525,7.125758,-23.880354,33.058872,-17.222237,-14.626618,-15.983523,18.085827,14.475769,4.286648,19.535011,4.603527,-1.842907,-11.099682,-34.529259,67.413666,-194.647278,0.000000,209.000000,-1.000000,,,,0.000000,4.000000,4.000000,4.000000,4.000000,4.000000,4.000000,4.000000,4.000000,4.000000,3.000000,4.000000,4.000000,4.000000,4.000000,4.000000,4.000000,4.000000,2.000000,4.000000,4.000000,4.000000,4.000000,4.000000,4.000000,4.000000,4.000000,4.000000,4.000000,4.000000,4.000000,4.000000,4.000000
1578521947.185150,81.000000,0.000000,-98.887192,-13.009751,-213.745255,32.197651,-2.053293,-39.958950,-9.154610,-5.538876,0.729803,-78.473145,15.333207,-54.519428,-1.485514,-5.256033,10.128130,11.990524,-1.599316,-21.805191,25.333508,-46.435783,-24.355581,-20.582924,6.785690,37.538216,28.897745,0.028298,-0.016461,-5.430808,-11.088582,-37.058830,65.807793,-202.144928,0.000000,201.000000,-1.000000,,,,0.000000,4.000000,4.000000,4.000000,4.000000,4.000000,4.000000,4.000000,4.000000,4.000000,3.000000,4.000000,4.000000,4.000000,4.000000,4.000000,4.000000,4.000000,2.000000,4.000000,4.000000,4.000000,4.000000,4.000000,4.000000,4.000000,4.000000,4.000000,4.000000,4.000000,4.000000,4.000000,4.000000
1578521947.193000,82.000000,0.000000,-98.788307,-12.483921,-216.608429,31.139812,-6.666625,-40.431812,-13.760839,-11.174362,-1.835029,-77.881851,16.343515,-63.695679,-0.971208,-4.225136,-5.779435,16.081099,-2.110537,-17.680822,51.974842,-39.209862,-7.408149,-7.741828,-5.015967,54.423756,45.279102,-9.202500,-0.016445,2.779751,-11.077494,-37.534592,64.203522,-203.481247,0.000000,176.000000,-1.000000,,,,0.000000,4.000000,4.000000,4.000000,4.000000,4.000000,4.000000,4.000000,4.000000,4.000000,3.000000,4.000000,4.000000,4.000000,4.000000,4.000000,4.000000,4.000000,2.000000,4.000000,4.000000,4.000000,4.000000,4.000000,4.000000,4.000000,4.000000,4.000000,4.000000,4.000000,4.000000,4.000000,4.000000
1578521947.200750,83.000000,0.000000,-98.689514,-13.497078,-215.366180,31.621494,-8.198420,-39.365742,-14.772719,-11.676008,1.756549,-71.137299,19.916914,-58.503777,2.619507,-3.195270,3.969935,5.808607,4.558240,-19.201603,59.615173,-17.632189,9.522336,-5.169984,2.168536,40.523178,29.849209,-4.577913,0.496392,9.443638,-11.066416,-39.548340,63.113682,-202.252121,0.000000,192.000000,-1.000000,,,,0.000000,4.000000,4.000000,4.000000,4.000000,4.000000,4.000000,4.000000,4.000000,4.000000,3.000000,4.000000,4.000000,4.000000,4.000000,4.000000,4.000000,4.000000,2.000000,4.000000,4.000000,4.000000,4.000000,4.000000,4.000000,4.000000,4.000000,4.000000,4.000000,4.000000,4.000000,4.000000,4.000000
1578521947.208600,84.000000,0.000000,-98.590828,-16.560505,-216.176453,30.564232,-7.164580,-39.839195,-14.245127,-12.177153,1.754793,-59.271290,36.820076,-41.522198,3.129708,-1.140792,36.786476,6.315619,4.553682,-19.182402,41.094021,-27.358147,-1.256417,-13.369943,8.833035,22.533936,15.973207,-2.009232,-1.555386,5.844451,-11.055349,-44.636997,62.537746,-203.588333,0.000000,218.000000,-1.000000,,,,0.000000,4.000000,4.000000,4.000000,4.000000,4.000000,4.000000,4.000000,4.000000,4.000000,3.000000,4.000000,4.000000,4.000000,4.000000,4.000000,4.000000,4.000000,2.000000,4.000000,4.000000,4.000000,4.000000,4.000000,4.000000,4.000000,4.000000,4.000000,4.000000,4.000000,4.000000,4.000000,4.000000
1578521947.216350,85.000000,0.000000,-98.492233,-16.543943,-214.934631,30.533667,-7.670236,-39.799355,-14.230882,-11.652155,3.804320,-59.724838,48.065308,-37.378109,2.613758,0.911630,25.467640,29.899046,3.523487,-10.958091,43.617027,-22.202583,-7.921827,-7.715547,6.260099,30.203711,22.623899,2.608162,2.035913,9.941171,-11.044294,-44.592361,66.064949,-201.846283,0.000000,167.000000,-1.000000,,,,0.000000,4.000000,4.000000,4.000000,4.000000,4.000000,4.000000,4.000000,4.000000,4.000000,3.000000,4.000000,4.000000,4.000000,4.000000,4.000000,4.000000,4.000000,2.000000,4.000000,4.000000,4.000000,4.000000,4.000000,4.000000,4.000000,4.000000,4.000000,4.000000,4.000000,4.000000,4.000000,4.000000
1578521947.224200,86.000000,0.000000,-97.880920,-12.937656,-209.078674,31.528774,-5.611284,-39.246735,-14.216650,-9.076401,9.441542,-67.870247,47.504421,-45.033039,7.739349,2.962001,-6.865520,45.253761,11.212271,-2.229184,59.470848,6.024748,2.342505,2.035758,11.382044,47.096584,31.832045,16.964527,7.674902,15.059434,-11.033250,-38.393921,70.101448,-196.003418,0.000000,148.000000,-1.000000,,,,0.000000,4.000000,4.000000,4.000000,4.000000,4.000000,4.000000,4.000000,4.000000,4.000000,3.000000,4.000000,4.000000,4.000000,4.000000,4.000000,4.000000,4.000000,2.000000,4.000000,4.000000,4.000000,4.000000,4.000000,4.000000,4.000000,4.000000,4.000000,4.000000,4.000000,4.000000,3.000000,4.000000
1578521947.231950,87.000000,0.000000,-99.834328,-13.437539,-209.895233,31.497246,-3.041570,-40.745953,-14.715255,-10.605785,9.432100,-68.315193,43.867172,-43.449543,9.270071,5.523141,11.602884,37.003380,10.688238,-7.355160,53.770351,-12.955636,-7.403428,-8.222688,13.934764,48.075127,34.877136,16.947563,-1.050721,0.172580,-10.509397,-37.329887,68.492889,-195.294586,0.000000,217.000000,-1.000000,,,,0.000000,4.000000,4.000000,4.000000,4.000000,4.000000,4.000000,4.000000,4.000000,4.000000,3.000000,4.000000,4.000000,4.000000,4.000000,4.000000,4.000000,4.000000,2.000000,4.000000,4.000000,4.000000,4.000000,4.000000,4.000000,4.000000,4.000000,4.000000,4.000000,4.000000,4.000000,3.000000,4.000000
1578521947.239800,88.000000,0.000000,-101.785774,-16.501024,-216.864822,30.440107,-4.576990,-42.756489,-16.751822,-14.697744,4.294463,-71.323799,35.105358,-47.508659,-1.508429,-2.174690,37.232307,13.889455,-6.758348,-23.245241,40.896069,-45.250374,-31.498589,-24.111900,0.074676,40.847565,32.790977,3.597282,-13.870183,-17.263491,-11.011707,-40.882301,66.373116,-200.740326,0.000000,132.000000,-1.000000,,,,0.000000,4.000000,4.000000,4.000000,4.000000,4.000000,4.000000,4.000000,4.000000,4.000000,3.000000,4.000000,4.000000,4.000000,4.000000,4.000000,4.000000,4.000000,3.000000,4.000000,4.000000,4.000000,4.000000,4.000000,4.000000,4.000000,4.000000,4.000000,4.000000,4.000000,4.000000,3.000000,4.000000
1578521947.247550,89.000000,0.000000,-102.196808,-16.997345,-217.160782,31.435308,-6.623695,-43.739372,-18.273531,-15.708687,4.802989,-78.431961,22.762558,-61.307304,-8.686408,-12.941746,4.887382,-1.509050,-16.495178,-31.427124,39.829529,-42.128201,-29.415808,-23.062147,-11.720271,39.781078,21.476135,6.157788,-6.164005,-12.630842,-11.000695,-41.867058,67.332382,-201.565216,0.000000,167.000000,-1.000000,,,,0.000000,4.000000,4.000000,4.000000,4.000000,4.000000,4.000000,4.000000,4.000000,4.000000,3.000000,4.000000,4.000000,4.000000,4.000000,4.000000,4.000000,4.000000,3.000000,4.000000,4.000000,4.000000,4.000000,4.000000,4.000000,4.000000,4.000000,4.000000,4.000000,4.000000,4.000000,3.000000,4.000000
1578521947.255400,90.000000,0.000000,-101.581787,-16.467525,-217.969269,34.993618,-7.129892,-42.669991,-17.742437,-15.692979,9.926391,-74.763786,18.124411,-60.733177,-3.036696,-8.313419,-9.476480,14.902716,-10.837658,-22.164927,43.892265,-9.265558,-14.514597,-15.346778,-6.067525,39.741295,13.762351,15.895220,7.175492,-4.413083,-10.476874,-41.312370,64.700943,-199.825195,0.000000,200.000000,-1.000000,,,,0.000000,4.000000,4.000000,4.000000,4.000000,4.000000,4.000000,4.000000,4.000000,4.000000,3.000000,4.000000,4.000000,4.000000,4.000000,4.000000,4.000000,4.000000,3.000000,4.000000,4.000000,4.000000,4.000000,4.000000,4.000000,4.000000,4.000000,4.000000,4.000000,4.000000,4.000000,3.000000,4.000000
1578521947.263150,91.000000,0.000000,-101.480209,-16.451059,-222.879501,32.394520,-7.122762,-43.140141,-18.237514,-14.651645,9.403644,-69.560822,21.696030,-54.518597,0.556084,-0.099978,21.815048,31.298069,-9.801179,-14.450455,41.797092,-9.256292,-21.679569,-18.921175,1.118030,41.240017,23.492178,3.571632,4.091393,-9.024055,-13.030500,-41.271057,59.508041,-204.240753,0.000000,229.000000,-1.000000,,,,0.000000,4.000000,4.000000,4.000000,4.000000,4.000000,4.000000,4.000000,4.000000,4.000000,3.000000,4.000000,4.000000,4.000000,4.000000,4.000000,4.000000,4.000000,3.000000,4.000000,4.000000,4.000000,4.000000,4.000000,4.000000,4.000000,4.000000,4.000000,4.000000,4.000000,4.000000,3.000000,4.000000
1578521947.271000,92.000000,0.000000,-101.891548,-16.434608,-214.451492,31.849306,-7.115639,-43.097000,-16.167995,-10.021608,6.317317,-67.952797,23.725616,-53.951260,-0.982933,-1.125519,27.947079,12.292412,-11.329840,-20.077030,35.601448,-25.144472,-27.298916,-20.953535,-0.934370,39.147495,29.109713,-1.560145,-0.015262,-9.527851,-17.632854,-41.742607,58.422890,-203.010880,0.000000,193.000000,-1.000000,,,,0.000000,4.000000,4.000000,4.000000,4.000000,4.000000,4.000000,4.000000,4.000000,4.000000,3.000000,4.000000,4.000000,4.000000,4.000000,4.000000,4.000000,4.000000,3.000000,4.000000,4.000000,4.000000,4.000000,4.000000,4.000000,4.000000,4.000000,4.000000,4.000000,4.000000,4.000000,3.000000,4.000000
1578521947.278750,93.000000,0.000000,-99.738373,-16.418173,-201.929352,41.048225,-7.108523,-42.541084,-11.536443,-7.447484,7.849462,-62.243820,18.573687,-43.640896,6.710357,9.644837,26.893492,6.639094,2.014824,-14.928747,45.822258,-13.324455,-6.245975,-9.650531,0.092205,28.851936,20.875475,16.390133,8.189881,3.302190,-19.153683,-41.188046,59.390110,-192.038635,0.000000,213.000000,-1.000000,,,,0.000000,4.000000,4.000000,4.000000,4.000000,4.000000,4.000000,4.000000,4.000000,4.000000,3.000000,4.000000,4.000000,4.000000,4.000000,4.000000,4.000000,4.000000,3.000000,4.000000,4.000000,4.000000,4.000000,4.000000,4.000000,4.000000,4.000000,4.000000,4.000000,4.000000,4.000000,3.000000,4.000000
1578521947.286600,94.000000,0.000000,-97.587357,-16.401754,-210.958191,39.981537,-8.639876,-44.037006,-12.037726,-11.542601,8.354432,-68.335419,19.067932,-37.443409,15.934416,25.019808,40.712749,39.452969,16.884604,5.086181,64.237976,4.637587,13.247450,2.153991,7.784420,34.464111,27.521265,19.963488,10.232973,12.529657,-18.108889,-41.146858,58.817898,-190.308136,0.000000,196.000000,-1.000000,,,,0.000000,4.000000,4.000000,4.000000,4.000000,4.000000,4.000000,4.000000,4.000000,4.000000,3.000000,4.000000,4.000000,4.000000,4.000000,4.000000,4.000000,4.000000,3.000000,4.000000,4.000000,4.000000,4.000000,4.000000,4.000000,4.000000,4.000000,4.000000,4.000000,4.000000,4.000000,3.000000,4.000000
1578521947.294350,95.000000,0.000000,-96.976944,-15.872533,-224.593384,28.659504,-11.195339,-46.044250,-17.153894,-15.633622,6.294796,-86.728622,30.330915,-53.303402,8.738995,13.712737,28.364346,48.644283,12.252335,3.542634,59.558350,-7.674743,8.105997,3.177479,15.981765,52.378365,44.416821,5.071729,2.017612,5.850461,-18.090780,-41.105709,58.759079,-203.451157,0.000000,200.000000,-1.000000,,,,0.000000,4.000000,4.000000,4.000000,4.000000,4.000000,4.000000,4.000000,4.000000,4.000000,3.000000,4.000000,4.000000,4.000000,4.000000,4.000000,4.000000,4.000000,3.000000,4.000000,4.000000,4.000000,4.000000,4.000000,4.000000,4.000000,4.000000,4.000000,4.000000,4.000000,4.000000,3.000000,4.000000
1578521947.302200,96.000000,0.000000,-97.392792,-16.369480,-220.266220,31.707767,-10.671324,-46.511024,-18.162382,-14.079527,8.339784,-87.154716,37.992893,-65.557793,-3.577437,-4.249693,5.771879,16.287947,-1.093251,-18.512192,44.114178,-35.872196,-1.132878,1.635839,14.940142,48.223423,39.244198,2.502554,-0.548508,-1.847698,-18.585508,-37.987682,59.213142,-208.888733,8064.000000,0.000000,-1.000000,,,,0.000000,4.000000,4.000000,4.000000,4.000000,4.000000,4.000000,4.000000,4.000000,4.000000,3.000000,4.000000,4.000000,4.000000,4.000000,4.000000,4.000000,4.000000,3.000000,4.000000,4.000000,4.000000,4.000000,4.000000,4.000000,4.000000,4.000000,4.000000,4.000000,4.000000,4.000000,3.000000,4.000000
1578521947.309950,97.000000,0.000000,-97.295395,-18.404392,-214.404938,37.317085,-10.147832,-46.977337,-17.118578,-15.091088,7.818623,-77.323975,34.877975,-62.928131,-4.599501,-3.732623,7.817389,10.630633,-3.656260,-23.109064,48.172626,-38.913246,0.919537,2.659845,5.181612,34.329044,26.384441,1.474411,-1.573600,-0.820209,-18.054104,-34.359951,59.153931,-205.602921,8064.000000,0.000000,-1.000000,,,,0.000000,4.000000,4.000000,4.000000,4.000000,4.000000,4.000000,4.000000,4.000000,4.000000,3.000000,4.000000,4.000000,4.000000,4.000000,4.000000,4.000000,4.000000,3.000000,4.000000,4.000000,4.000000,4.000000,4.000000,4.000000,4.000000,4.000000,4.000000,4.000000,4.000000,4.000000,3.000000,4.000000
1578521947.317800,98.000000,0.000000,-97.198105,-19.924450,-220.344376,25.484896,-14.240248,-49.494461,-17.614281,-21.742664,-3.984067,-74.169724,29.202074,-60.301102,0.020484,1.399314,16.014700,25.491798,-1.601322,-15.393647,48.637276,-13.746129,1.944258,3.170005,-5.079980,39.422920,27.383699,-9.809115,-8.751513,-3.383491,-18.036049,-36.889694,59.094776,-209.499878,8064.000000,0.000000,-1.000000,,,,0.000000,4.000000,4.000000,4.000000,4.000000,4.000000,4.000000,4.000000,4.000000,4.000000,3.000000,4.000000,4.000000,4.000000,4.000000,4.000000,4.000000,4.000000,3.000000,4.000000,4.000000,4.000000,4.000000,4.000000,4.000000,4.000000,4.000000,4.000000,4.000000,4.000000,4.000000,3.000000,4.000000
1578521947.325650,99.000000,0.000000,-97.100906,-21.442987,-224.739410,14.177360,-18.328571,-50.470608,-18.109486,-26.849127,-14.236493,-62.813503,24.557487,-54.599773,-0.492357,-0.653367,18.049967,10.594511,-2.625362,-19.993637,27.050175,-8.091357,-6.262814,2.654015,-8.151823,40.409138,28.894777,-11.337768,-12.332506,-11.072415,-18.018013,-40.955368,59.035679,-216.469864,8064.000000,0.000000,-1.000000,,,,0.000000,4.000000,4.000000,4.000000,4.000000,4.000000,4.000000,4.000000,4.000000,4.000000,3.000000,4.000000,4.000000,4.000000,4.000000,4.000000,4.000000,4.000000,3.000000,4.000000,4.000000,4.000000,4.000000,4.000000,4.000000,4.000000,4.000000,4.000000,4.000000,4.000000,4.000000,3.000000,4.000000
1578521947.333500,100.000000,1.000000,-97.088768,-21.440308,-224.519012,14.175588,-18.326281,-50.464298,-18.107222,-26.717566,-13.657791,-61.203087,27.503136,-55.362179,-0.492296,-0.909696,17.278481,10.529084,-2.560931,-18.901396,27.431410,-11.680090,-6.326134,2.525478,-6.035419,43.801521,31.968088,-11.400453,-12.074554,-11.006928,-18.015760,-40.950249,59.028301,-216.506912,8064.000000,0.000000,-1.000000,,,,0.000000,4.000000,4.000000,4.000000,4.000000,4.000000,4.000000,4.000000,4.000000,4.000000,3.000000,4.000000,4.000000,4.000000,4.000000,4.000000,4.000000,4.000000,3.000000,4.000000,4.000000,4.000000,4.000000,4.000000,4.000000,4.000000,4.000000,4.000000,4.000000,4.000000,4.000000,3.000000,4.000000
1578521947.341251,101.000000,1.000000,-97.076630,-21.437626,-224.298615,14.173816,-18.323990,-50.457989,-18.104959,-26.586004,-13.079088,-59.592674,30.448784,-56.124584,-0.492234,-1.166024,16.506994,10.463657,-2.496500,-17.809153,27.812643,-15.268822,-6.389453,2.396941,-3.919016,47.193909,35.041397,-11.463139,-11.816603,-10.941442,-18.013508,-40.945129,59.020920,-216.543961,8064.000000,0.000000,-1.000000,,,,0.000000,4.000000,4.000000,4.000000,4.000000,4.000000,4.000000,4.000000,4.000000,4.000000,3.000000,4.000000,4.000000,4.000000,4.000000,4.000000,4.000000,4.000000,3.000000,4.000000,4.000000,4.000000,4.000000,4.000000,4.000000,4.000000,4.000000,4.000000,4.000000,4.000000,4.000000,3.000000,4.000000
1578521947.349001,102.000000,1.000000,-97.064491,-21.434946,-224.078217,14.172043,-18.321699,-50.451679,-18.102695,-26.454443,-12.500385,-57.982258,33.394432,-56.886990,-0.492173,-1.422353,15.735507,10.398231,-2.432070,-16.716909,28.193878,-18.857553,-6.452773,2.268404,-1.802612,50.586292,38.114712,-11.525824,-11.558651,-10.875956,-18.011255,-40.940010,59.013542,-216.580994,8064.000000,0.000000,-1.000000,,,,0.000000,4.000000,4.000000,4.000000,4.000000,4.000000,4.000000,4.000000,4.000000,4.000000,3.000000,4.000000,4.000000,4.000000,4.000000,4.000000,4.000000,4.000000,3.000000,4.000000,4.000000,4.000000,4.000000,4.000000,4.000000,4.000000,4.000000,4.000000,4.000000,4.000000,4.000000,3.000000,4.000000
1578521947.356751,103.000000,1.000000,-97.052353,-21.432266,-223.857819,14.170271,-18.319407,-50.445374,-18.100431,-26.322882,-11.921683,-56.371841,36.340080,-57.649395,-0.492111,-1.678681,14.964020,10.332804,-2.367639,-15.624666,28.575111,-22.446285,-6.516093,2.139867,0.313791,53.978676,41.188023,-11.588509,-11.300698,-10.810469,-18.009005,-40.934891,59.006161,-216.618042,8064.000000,0.000000,-1.000000,,,,0.000000,4.000000,4.000000,4.000000,4.000000,4.000000,4.000000,4.000000,4.000000,4.000000,3.000000,4.000000,4.000000,4.000000,4.000000,4.000000,4.000000,4.000000,3.000000,4.000000,4.000000,4.000000,4.000000,4.000000,4.000000,4.000000,4.000000,4.000000,4.000000,4.000000,4.000000,3.000000,4.000000
1578521947.364502,104.000000,1.000000,-97.040215,-21.429585,-223.637421,14.168499,-18.317116,-50.439064,-18.098167,-26.191320,-11.342980,-54.761425,39.285728,-58.411800,-0.492050,-1.935010,14.192533,10.267377,-2.303208,-14.532424,28.956347,-26.035019,-6.579412,2.011330,2.430195,57.371063,44.261333,-11.651195,-11.042747,-10.744983,-18.006752,-40.929771,58.998783,-216.655090,8064.000000,0.000000,-1.000000,,,,0.000000,4.000000,4.000000,4.000000,4.000000,4.000000,4.000000,4.000000,4.000000,4.000000,3.000000,4.000000,4.000000,4.000000,4.000000,4.000000,4.000000,4.000000,3.000000,4.000000,4.000000,4.000000,4.000000,4.000000,4.000000,4.000000,4.000000,4.000000,4.000000,4.000000,4.000000,3.000000,4.000000
1578521947.372252,105.000000,1.000000,-97.028076,-21.426905,-223.417007,14.166727,-18.314825,-50.432755,-18.095903,-26.059759,-10.764277,-53.151009,42.231377,-59.174210,-0.491988,-2.191339,13.421045,10.201950,-2.238778,-13.440181,29.337580,-29.623751,-6.642732,1.882794,4.546598,60.763447,47.334644,-11.713880,-10.784795,-10.679496,-18.004499,-40.924652,58.991405,-216.692123,8064.000000,0.000000,-1.000000,,,,0.000000,4.000000,4.000000,4.000000,4.000000,4.000000,4.000000,4.000000,4.000000,4.000000,3.000000,4.000000,4.000000,4.000000,4.000000,4.000000,4.000000,4.000000,3.000000,4.000000,4.000000,4.000000,4.000000,4.000000,4.000000,4.000000,4.000000,4.000000,4.000000,4.000000,4.000000,3.000000,4.000000
1578521947.380002,106.000000,1.000000,-97.015938,-21.424225,-223.196609,14.164954,-18.312534,-50.426445,-18.093639,-25.928198,-10.185575,-51.540592,45.177025,-59.936615,-0.491926,-2.447667,12.649559,10.136523,-2.174347,-12.347939,29.718815,-33.212482,-6.706052,1.754257,6.663002,64.155830,50.407955,-11.776565,-10.526843,-10.614009,-18.002247,-40.919533,58.984024,-216.729172,8064.000000,0.000000,-1.000000,,,,0.000000,4.000000,4.000000,4.000000,4.000000,4.000000,4.000000,4.000000,4.000000,4.000000,3.000000,4.000000,4.000000,4.000000,4.000000,4.000000,4.000000,4.000000,3.000000,4.000000,4.000000,4.000000,4.000000,4.000000,4.000000,4.000000,4.000000,4.000000,4.000000,4.000000,4.000000,3.000000,4.000000
1578521947.387752,107.000000,0.000000,-97.003799,-21.421545,-222.976212,14.163182,-18.310244,-50.420135,-18.091377,-25.796637,-9.606873,-49.930180,48.122673,-60.699020,-0.491865,-2.703996,11.878072,10.071096,-2.109916,-11.255695,30.100048,-36.801216,-6.769372,1.625720,8.779406,67.548218,53.481266,-11.839251,-10.268891,-10.548523,-17.999994,-40.914413,58.976646,-216.766220,8064.000000,0.000000,-1.000000,,,,0.000000,4.000000,4.000000,4.000000,4.000000,4.000000,4.000000,4.000000,4.000000,4.000000,3.000000,4.000000,4.000000,4.000000,4.000000,4.000000,4.000000,4.000000,3.000000,4.000000,4.000000,4.000000,4.000000,4.000000,4.000000,4.000000,4.000000,4.000000,4.000000,4.000000,4.000000,3.000000,4.000000
1578521947.395503,108.000000,0.000000,-96.906799,-21.400124,-218.650681,16.200302,-18.291933,-50.369717,-18.073286,-26.283661,-8.058805,-45.264862,67.048912,-70.894730,-0.491373,-6.803856,-7.108165,5.445641,-8.261652,-10.731619,22.377640,-54.200310,-15.993372,-1.452829,6.206523,55.172977,40.607273,-9.263309,-9.232982,-12.076435,-17.981995,-39.335037,58.917667,-217.062271,8064.000000,0.000000,-1.000000,,,,0.000000,4.000000,4.000000,4.000000,4.000000,4.000000,4.000000,4.000000,4.000000,4.000000,3.000000,4.000000,4.000000,4.000000,4.000000,4.000000,4.000000,4.000000,3.000000,4.000000,4.000000,4.000000,4.000000,4.000000,4.000000,4.000000,4.000000,4.000000,4.000000,4.000000,4.000000,3.000000,4.000000
1578521947.403253,109.000000,0.000000,-96.297073,-21.378723,-216.380737,18.235382,-18.273642,-50.319347,-18.055212,-26.770197,-7.025104,-45.732418,45.956219,-71.336655,-0.490882,-8.848334,-15.819006,-14.046985,-13.894416,-24.054220,16.201416,-35.684570,-17.515841,-0.938556,-5.081734,36.656265,21.592306,-5.151481,-8.710928,-14.115642,-17.964012,-44.936726,57.833111,-215.819565,8064.000000,0.000000,-1.000000,,,,0.000000,4.000000,4.000000,4.000000,4.000000,4.000000,4.000000,4.000000,4.000000,4.000000,3.000000,4.000000,4.000000,4.000000,4.000000,4.000000,4.000000,4.000000,3.000000,4.000000,4.000000,4.000000,4.000000,4.000000,4.000000,4.000000,4.000000,4.000000,4.000000,4.000000,4.000000,3.000000,4.000000
1578521947.410902,110.000000,0.000000,-97.739235,-21.357344,-217.190002,15.140224,-18.768188,-50.269028,-18.037157,-26.230606,-12.146284,-51.840534,43.858982,-71.778137,-0.490391,-7.813845,-15.290366,-13.007297,-12.342060,-27.107090,19.262138,-25.392477,-16.472683,-0.424797,-5.589473,51.491402,32.852764,-15.402740,-13.830422,-15.127167,-17.946049,-54.635380,55.723995,-220.219131,8064.000000,0.000000,-1.000000,,,,0.000000,4.000000,4.000000,4.000000,4.000000,4.000000,4.000000,4.000000,4.000000,4.000000,3.000000,4.000000,4.000000,4.000000,4.000000,4.000000,4.000000,4.000000,3.000000,4.000000,4.000000,4.000000,4.000000,4.000000,4.000000,4.000000,4.000000,4.000000,4.000000,4.000000,4.000000,3.000000,4.000000
1578521947.418651,111.000000,0.000000,-99.692780,-21.335987,-226.203583,11.022520,-18.236599,-50.218758,-18.019119,-26.204376,-26.493113,-63.583565,59.199738,-69.142258,-0.489900,-2.165005,6.776206,2.903147,-9.765615,-21.438957,19.242876,-26.392725,-16.456211,-0.424372,-8.147986,52.465553,29.742989,-30.259132,-19.970438,-14.599218,-17.928102,-55.606384,54.129810,-229.742508,8064.000000,0.000000,-1.000000,,,,0.000000,4.000000,4.000000,4.000000,4.000000,4.000000,4.000000,4.000000,4.000000,4.000000,3.000000,4.000000,4.000000,4.000000,4.000000,4.000000,4.000000,4.000000,3.000000,4.000000,4.000000,4.000000,4.000000,4.000000,4.000000,4.000000,4.000000,4.000000,4.000000,4.000000,4.000000,3.000000,4.000000
1578521947.426300,112.000000,0.000000,-100.618729,-21.314651,-225.464554,11.524318,-17.705542,-50.168541,-18.001101,-26.178171,-27.492260,-70.186646,51.448231,-64.457733,-0.489411,-2.162840,19.589943,-4.279243,-10.781491,-25.520082,12.044147,-35.084282,-16.952574,-0.423947,-12.242402,38.054111,17.405554,-29.203232,-21.488930,-14.584620,-17.910175,-51.961037,55.101318,-228.487122,8064.000000,0.000000,-1.000000,,,,0.000000,4.000000,4.000000,4.000000,4.000000,4.000000,4.000000,4.000000,4.000000,4.000000,3.000000,4.000000,4.000000,4.000000,4.000000,4.000000,4.000000,4.000000,3.000000,4.000000,4.000000,4.000000,4.000000,4.000000,4.000000,4.000000,4.000000,4.000000,4.000000,4.000000,4.000000,3.000000,4.000000
1578521947.434048,113.000000,0.000000,-100.005287,-21.293337,-208.828842,14.589717,-18.713478,-50.118370,-17.983099,-26.151993,-11.054512,-68.577995,54.473705,-72.598404,-0.488921,-10.365806,-10.686058,-4.787785,-10.770710,-18.315075,16.647486,-55.049198,-17.961264,-0.423523,-11.717340,55.964775,37.388149,-16.866337,-20.954620,-15.082855,-18.405085,-52.934715,57.610321,-214.412476,8064.000000,0.000000,-1.000000,,,,0.000000,4.000000,4.000000,4.000000,4.000000,4.000000,4.000000,4.000000,4.000000,4.000000,3.000000,4.000000,4.000000,4.000000,4.000000,4.000000,4.000000,4.000000,3.000000,4.000000,4.000000,4.000000,4.000000,4.000000,4.000000,4.000000,4.000000,4.000000,4.000000,4.000000,4.000000,3.000000,4.000000
1578521947.441697,114.000000,0.000000,-99.905281,-21.272043,-201.440521,16.626410,-18.181944,-50.068253,-17.965117,-26.125841,-2.325508,-64.919678,75.444870,-75.089905,-0.488432,-6.765696,-18.880499,22.396490,-8.195836,1.703240,35.605198,-41.660816,-15.379199,-0.423100,-14.782545,70.780609,49.658451,-8.131521,-20.933664,-15.067773,-17.873859,-48.266396,58.578350,-206.505753,8064.000000,0.000000,-1.000000,,,,0.000000,4.000000,4.000000,4.000000,4.000000,4.000000,4.000000,4.000000,4.000000,4.000000,3.000000,4.000000,4.000000,4.000000,4.000000,4.000000,4.000000,4.000000,3.000000,4.000000,4.000000,4.000000,4.000000,4.000000,4.000000,4.000000,4.000000,4.000000,4.000000,4.000000,4.000000,3.000000,4.000000
1578521947.449446,115.000000,0.000000,-99.805374,-21.250771,-207.392929,17.122602,-10.471454,-50.018185,-18.459972,-26.612535,-5.400106,-53.572704,70.241219,-59.117382,-0.487944,6.061583,13.958894,18.271530,-6.649179,-5.477950,29.928568,-8.798641,-12.286897,-0.422677,-10.152378,50.709827,29.608793,-4.533646,-14.758885,-14.539885,-15.804704,-37.961720,58.006954,-208.350540,8064.000000,0.000000,-1.000000,,,,0.000000,4.000000,4.000000,4.000000,4.000000,4.000000,4.000000,4.000000,4.000000,4.000000,3.000000,4.000000,4.000000,4.000000,4.000000,4.000000,4.000000,4.000000,3.000000,4.000000,4.000000,4.000000,4.000000,4.000000,4.000000,4.000000,4.000000,4.000000,4.000000,4.000000,4.000000,3.000000,4.000000
1578521947.457095,116.000000,0.000000,-99.705574,-21.229519,-205.134247,18.131123,-6.358418,-49.968166,-17.928692,-26.073103,-4.369065,-39.160160,56.324825,-46.237751,-1.000276,7.593982,41.637241,-8.413409,-6.642530,-23.421190,1.693510,-19.559074,-16.889994,-0.422254,5.755210,47.582191,27.015083,-3.503471,-9.103101,-15.038165,-13.737617,-39.462219,58.974586,-207.116547,8064.000000,0.000000,-1.000000,,,,0.000000,4.000000,4.000000,4.000000,4.000000,4.000000,4.000000,4.000000,4.000000,4.000000,3.000000,4.000000,4.000000,4.000000,4.000000,4.000000,4.000000,4.000000,3.000000,4.000000,4.000000,4.000000,4.000000,4.000000,4.000000,4.000000,4.000000,4.000000,4.000000,4.000000,4.000000,3.000000,4.000000
1578521947.464844,117.000000,0.000000,-99.605865,-21.208290,-203.903473,20.677094,-14.044368,-49.918198,-17.910763,-26.047029,0.250689,-38.095356,60.883888,-47.217155,-0.486456,6.560748,12.877656,11.595005,-6.635887,-8.013154,5.281560,-51.847206,-23.026951,-0.421832,-1.430032,66.508972,43.911144,-1.961506,-10.119638,-15.023127,-14.236700,-44.038139,61.479713,-205.883789,8064.000000,0.000000,-1.000000,,,,0.000000,4.000000,4.000000,4.000000,4.000000,4.000000,4.000000,4.000000,4.000000,4.000000,3.000000,4.000000,4.000000,4.000000,4.000000,4.000000,4.000000,4.000000,3.000000,4.000000,4.000000,4.000000,4.000000,4.000000,4.000000,4.000000,4.000000,4.000000,4.000000,4.000000,4.000000,3.000000,4.000000
1578521947.472493,118.000000,0.000000,-99.506264,-21.187082,-209.853424,21.682056,-18.132887,-49.868279,-18.405672,-26.533804,0.250438,-49.852135,62.874287,-50.759682,1.565313,8.605469,-9.699324,39.788536,-6.629251,8.917936,31.942945,-47.692795,-19.414181,-0.421410,-24.505526,61.827076,39.764668,-2.985186,-8.571057,-11.418360,-14.222463,-39.891541,62.443878,-207.729187,8064.000000,0.000000,-1.000000,,,,0.000000,4.000000,4.000000,4.000000,4.000000,4.000000,4.000000,4.000000,4.000000,4.000000,3.000000,4.000000,4.000000,4.000000,4.000000,4.000000,4.000000,4.000000,3.000000,4.000000,4.000000,4.000000,4.000000,4.000000,4.000000,4.000000,4.000000,4.000000,4.000000,4.000000,4.000000,3.000000,4.000000
1578521947.480242,119.000000,0.000000,-99.406754,-21.165895,-206.566635,21.147554,-10.935267,-49.818413,-16.335985,-23.430347,-0.775453,-56.981770,63.837051,-54.811485,3.615030,-1.146726,-8.151163,16.671825,-6.622622,-5.962776,28.834080,-14.824590,-15.292202,-0.420989,-17.301533,48.944736,29.468494,-5.033483,-1.382999,-7.817198,-14.208241,-35.236263,61.868610,-204.957352,8064.000000,0.000000,-1.000000,,,,0.000000,4.000000,4.000000,4.000000,4.000000,4.000000,4.000000,4.000000,4.000000,4.000000,3.000000,4.000000,4.000000,4.000000,4.000000,4.000000,4.000000,4.000000,3.000000,4.000000,4.000000,4.000000,4.000000,4.000000,4.000000,4.000000,4.000000,4.000000,4.000000,4.000000,4.000000,3.000000,4.000000
1578521947.487891,120.000000,0.000000,-99.307350,-21.144730,-204.308792,21.126408,-5.796127,-49.768593,-12.217084,-19.817173,-0.261857,-57.437607,69.414238,-59.372059,3.098594,-10.376348,-9.681474,-5.908948,-6.616000,-20.828608,13.420630,-21.476433,-18.866653,-0.933388,4.767051,60.177841,41.233898,-2.977167,2.720948,-6.783740,-14.194033,-36.739487,61.806744,-202.701111,8064.000000,0.000000,-1.000000,,,,0.000000,4.000000,4.000000,4.000000,4.000000,4.000000,4.000000,4.000000,4.000000,4.000000,3.000000,4.000000,4.000000,4.000000,4.000000,4.000000,4.000000,4.000000,3.000000,4.000000,4.000000,4.000000,4.000000,4.000000,4.000000,4.000000,4.000000,4.000000,4.000000,4.000000,4.000000,3.000000,4.000000
1578521947.495640,121.000000,0.000000,-99.208038,-21.123585,-214.873718,20.079639,-8.867254,-49.718826,-10.153585,-19.797356,-2.825698,-60.969913,53.447392,-60.338329,2.582675,-0.622383,-12.235894,6.917474,-7.122204,-16.705215,16.996954,-46.070339,-20.899069,-0.419634,2.198182,68.835617,50.936253,-3.487010,0.154124,-6.776956,-14.179838,-36.189930,61.744938,-211.729187,8064.000000,0.000000,-1.000000,,,,0.000000,4.000000,4.000000,4.000000,4.000000,4.000000,4.000000,4.000000,4.000000,4.000000,3.000000,4.000000,4.000000,4.000000,4.000000,4.000000,4.000000,4.000000,3.000000,4.000000,4.000000,4.000000,4.000000,4.000000,4.000000,4.000000,4.000000,4.000000,4.000000,4.000000,4.000000,3.000000,4.000000
1578521947.503289,122.000000,0.000000,-99.108833,-21.102461,-223.376785,18.008278,-11.422489,-49.669106,-10.656252,-21.828840,-8.463898,-59.883305,29.291378,-58.739529,3.092913,8.609009,0.084034,11.525941,-6.602262,-15.150049,12.364572,-39.357605,-20.365349,0.093606,-6.521966,46.715496,31.398138,-18.355318,-5.999876,-8.308640,-14.165658,-36.666557,59.119087,-222.286682,8192.000000,0.000000,-1.000000,,,,0.000000,4.000000,4.000000,4.000000,4.000000,4.000000,4.000000,4.000000,4.000000,4.000000,3.000000,4.000000,4.000000,4.000000,4.000000,4.000000,4.000000,4.000000,3.000000,4.000000,4.000000,4.000000,4.000000,4.000000,4.000000,4.000000,4.000000,4.000000,4.000000,4.000000,4.000000,3.000000,4.000000
1578521947.511037,123.000000,0.000000,-99.009720,-21.081358,-222.127777,16.964628,-10.385426,-49.619438,-10.645596,-22.319832,-13.070819,-52.131111,39.518497,-58.680790,3.089820,4.497836,3.673693,-2.844560,-6.595659,-21.801565,-3.032408,-23.933630,-20.344984,-1.444949,-4.976982,24.617498,6.751355,-28.593374,-10.096440,-10.351614,-14.151493,-39.193996,57.008686,-218.987473,8064.000000,0.000000,-1.000000,,,,0.000000,4.000000,4.000000,4.000000,4.000000,4.000000,4.000000,4.000000,4.000000,4.000000,3.000000,4.000000,4.000000,4.000000,4.000000,4.000000,4.000000,4.000000,3.000000,4.000000,4.000000,4.000000,4.000000,4.000000,4.000000,4.000000,4.000000,4.000000,4.000000,4.000000,4.000000,3.000000,4.000000
1578521947.518686,124.000000,0.000000,-98.910713,-21.573097,-221.392822,16.434843,-11.400681,-49.569817,-10.122129,-21.784691,-12.544928,-49.514877,69.222572,-67.340057,2.573910,-2.686149,-28.637672,-6.431458,-7.614705,-21.266943,-4.055017,-26.986620,-20.324638,0.607778,-5.997646,41.515957,19.565117,-13.180164,-10.086344,-8.802801,-14.137341,-40.180443,57.977322,-211.076172,8064.000000,0.000000,-1.000000,,,,0.000000,4.000000,4.000000,4.000000,4.000000,4.000000,4.000000,4.000000,4.000000,4.000000,3.000000,4.000000,4.000000,4.000000,4.000000,4.000000,4.000000,4.000000,3.000000,4.000000,4.000000,4.000000,4.000000,4.000000,4.000000,4.000000,4.000000,4.000000,4.000000,4.000000,4.000000,3.000000,4.000000
1578521947.526435,125.000000,0.000000,-98.811806,-21.551525,-221.171432,17.444050,-11.389280,-50.033070,-10.624828,-19.711624,-7.404177,-48.439724,76.845657,-70.349640,4.622618,-1.657822,-49.121857,9.985229,-5.555808,-9.450805,9.282372,-34.651939,-18.765852,4.709734,-6.504469,68.653931,46.725037,2.217631,-6.999334,-4.178614,-14.123204,-41.678722,60.996265,-208.813828,8064.000000,0.000000,-1.000000,,,,0.000000,4.000000,4.000000,4.000000,4.000000,4.000000,4.000000,4.000000,4.000000,4.000000,3.000000,4.000000,4.000000,4.000000,4.000000,4.000000,4.000000,4.000000,3.000000,4.000000,4.000000,4.000000,4.000000,4.000000,4.000000,4.000000,4.000000,4.000000,4.000000,4.000000,4.000000,3.000000,4.000000
1578521947.534084,126.000000,0.000000,-98.712990,-21.017153,-222.488724,15.375323,-10.865070,-49.470215,-11.127024,-18.153452,-11.499337,-45.314358,58.307270,-54.381855,9.233379,10.138707,-16.252220,26.898321,-1.447688,-0.210585,16.452576,-35.130108,-16.695805,4.192204,-2.908221,56.277584,33.857800,-9.579458,-7.505156,-5.712896,-14.109080,-45.739609,60.422451,-210.143463,8064.000000,0.000000,-1.000000,,,,0.000000,4.000000,4.000000,4.000000,4.000000,4.000000,4.000000,4.000000,4.000000,4.000000,3.000000,4.000000,4.000000,4.000000,4.000000,4.000000,4.000000,4.000000,3.000000,4.000000,4.000000,4.000000,4.000000,4.000000,4.000000,4.000000,4.000000,4.000000,4.000000,4.000000,4.000000,3.000000,4.000000
1578521947.541833,127.000000,0.000000,-98.614281,-21.508955,-224.830338,8.693281,-13.931129,-49.420746,-10.603076,-21.725042,-23.282709,-53.474174,37.736141,-51.250549,10.249787,13.718312,16.584543,16.102192,-0.933420,-7.902682,5.666893,-28.941133,-17.191929,-0.940194,-5.982235,32.118740,7.157276,-24.441673,-11.087394,-10.835389,-14.607792,-48.257973,57.285103,-213.010254,8064.000000,0.000000,-1.000000,,,,0.000000,4.000000,4.000000,4.000000,4.000000,4.000000,4.000000,4.000000,4.000000,4.000000,3.000000,4.000000,4.000000,4.000000,4.000000,4.000000,4.000000,4.000000,3.000000,4.000000,4.000000,4.000000,4.000000,4.000000,4.000000,4.000000,4.000000,4.000000,4.000000,4.000000,4.000000,3.000000,4.000000
1578521947.549482,0.000000,0.000000,-98.515663,-21.487446,-216.913193,11.761512,-13.404377,-50.396965,-10.592473,-25.805882,-17.105581,-69.318138,39.236866,-74.789040,6.136973,-5.269765,-15.739733,-10.067757,-3.496589,-20.715292,-11.774672,-24.809628,-18.200378,-2.990535,-12.130099,45.419956,22.021914,-15.186463,-10.050665,-11.850194,-14.080364,-49.235355,57.740639,-208.181854,0.000000,214.000000,-1.000000,,,,0.000000,4.000000,4.000000,4.000000,4.000000,4.000000,4.000000,4.000000,4.000000,4.000000,4.000000,4.000000,4.000000,4.000000,4.000000,4.000000,4.000000,4.000000,3.000000,4.000000,4.000000,4.000000,4.000000,4.000000,4.000000,4.000000,4.000000,4.000000,4.000000,4.000000,4.000000,3.000000,4.000000
1578521947.557231,1.000000,0.000000,-98.929970,-17.876215,-203.875778,26.108725,-4.160203,-46.756824,-10.069060,-21.677511,3.937166,-70.274460,57.146347,-81.893738,7.669298,-13.982444,-48.031685,-5.955124,-4.518733,-17.617653,0.031975,-26.836100,-11.515512,6.243224,-13.656431,71.528381,51.230659,1.751800,1.241437,-4.658857,-12.527822,-45.083553,63.836746,-194.127518,0.000000,160.000000,-1.000000,,,,0.000000,4.000000,4.000000,4.000000,4.000000,4.000000,4.000000,4.000000,4.000000,4.000000,4.000000,4.000000,4.000000,4.000000,4.000000,4.000000,4.000000,4.000000,3.000000,4.000000,4.000000,4.000000,4.000000,4.000000,4.000000,4.000000,4.000000,4.000000,4.000000,4.000000,4.000000,3.000000,4.000000
1578521947.564880,2.000000,0.000000,-98.318214,-13.755775,-200.082153,33.774921,1.484982,-40.043400,-5.443607,-14.989166,11.625536,-56.870850,67.345612,-57.709282,16.892399,8.595641,-15.163140,18.666216,3.690914,-6.317985,32.852455,-19.629776,2.854978,18.544674,-10.565851,73.508133,55.794815,4.826972,12.009426,6.627853,-10.976832,-34.269241,68.388290,-185.728256,0.000000,171.000000,-1.000000,,,,0.000000,4.000000,4.000000,4.000000,4.000000,4.000000,4.000000,4.000000,4.000000,4.000000,4.000000,4.000000,4.000000,4.000000,4.000000,4.000000,4.000000,4.000000,3.000000,4.000000,4.000000,4.000000,4.000000,4.000000,4.000000,4.000000,4.000000,4.000000,4.000000,4.000000,4.000000,3.000000,4.000000
1578521947.572629,3.000000,0.000000,-94.117332,-13.742020,-201.933350,31.689867,-0.054964,-37.439255,3.792606,-14.461357,5.972885,-46.557568,66.765450,-35.087471,24.567814,31.151148,17.672535,27.878319,19.071838,-1.183462,35.896526,-3.199891,10.031610,22.628693,0.213945,67.793602,53.174919,2.258042,13.535878,13.800713,-7.376112,-27.568304,68.832726,-186.568176,0.000000,231.000000,-1.000000,,,,0.000000,4.000000,4.000000,4.000000,4.000000,4.000000,4.000000,4.000000,4.000000,4.000000,4.000000,4.000000,4.000000,4.000000,4.000000,4.000000,4.000000,4.000000,3.000000,4.000000,4.000000,4.000000,4.000000,4.000000,4.000000,4.000000,4.000000,4.000000,4.000000,4.000000,4.000000,3.000000,4.000000
1578521947.580277,4.000000,0.000000,-90.433472,-13.215457,-200.705780,32.170998,-0.054909,-38.427456,9.429839,-14.959716,6.479733,-42.408447,63.621758,-27.872896,27.107347,35.735382,33.039478,27.337620,23.668152,-1.695099,11.758066,-1.658229,7.970297,21.067602,20.213732,69.264267,54.147385,3.281425,11.983881,12.761271,-3.778992,-29.079197,68.251068,-185.868790,0.000000,242.000000,-1.000000,,,,0.000000,4.000000,4.000000,4.000000,4.000000,4.000000,4.000000,4.000000,4.000000,4.000000,4.000000,4.000000,4.000000,4.000000,4.000000,4.000000,4.000000,4.000000,3.000000,4.000000,4.000000,4.000000,4.000000,4.000000,4.000000,4.000000,4.000000,4.000000,4.000000,4.000000,4.000000,3.000000,4.000000
1578521947.588026,5.000000,0.000000,-90.343040,-10.125319,-199.992249,33.164467,0.457966,-37.876209,3.266563,-14.431936,8.011715,-42.366039,66.635056,-36.050152,20.926395,24.417595,17.621822,25.771820,12.362432,-2.719045,-0.048564,-15.502725,5.911045,21.559355,25.834543,66.630905,43.836826,4.303785,11.971897,11.722868,-2.749573,-26.998837,68.182823,-184.657272,0.000000,217.000000,-1.000000,,,,0.000000,4.000000,4.000000,4.000000,4.000000,4.000000,4.000000,4.000000,4.000000,4.000000,4.000000,4.000000,4.000000,4.000000,4.000000,4.000000,4.000000,4.000000,3.000000,4.000000,4.000000,4.000000,4.000000,4.000000,4.000000,4.000000,4.000000,4.000000,4.000000,4.000000,4.000000,3.000000,4.000000
1578521947.595675,6.000000,0.000000,-90.765518,-11.653655,-200.817902,26.977457,-4.157876,-38.863972,-12.634139,-15.955965,3.901139,-46.939056,79.388939,-64.219231,6.546494,-1.247849,-14.703491,14.976817,4.144941,-4.254787,5.079690,-23.692350,0.264108,22.050617,12.475375,60.410427,34.562222,3.273840,9.908643,11.198325,-3.259643,-24.920555,68.627457,-189.087997,0.000000,218.000000,-1.000000,,,,0.000000,4.000000,4.000000,4.000000,4.000000,4.000000,4.000000,4.000000,4.000000,4.000000,4.000000,4.000000,4.000000,4.000000,4.000000,4.000000,4.000000,4.000000,3.000000,4.000000,4.000000,4.000000,4.000000,4.000000,4.000000,4.000000,4.000000,4.000000,4.000000,4.000000,4.000000,3.000000,4.000000
1578521947.603424,7.000000,0.000000,-90.161934,-16.770206,-200.617081,20.796633,-9.281923,-41.902031,-23.390736,-18.504112,-0.205326,-53.045963,77.258263,-80.565269,-1.665181,-11.503011,-46.483658,7.269533,4.653616,-5.276173,11.741277,-32.899426,-9.479746,20.490105,1.693669,63.426937,40.168682,3.270566,5.796170,7.084563,-3.256384,-32.075123,68.558830,-193.001480,0.000000,234.000000,-1.000000,,,,0.000000,4.000000,4.000000,4.000000,4.000000,4.000000,4.000000,4.000000,4.000000,4.000000,4.000000,4.000000,4.000000,4.000000,4.000000,4.000000,4.000000,4.000000,3.000000,4.000000,4.000000,4.000000,4.000000,4.000000,4.000000,4.000000,4.000000,4.000000,4.000000,4.000000,4.000000,3.000000,4.000000
1578521947.611073,8.000000,0.000000,-90.584595,-18.291897,-200.416458,19.750195,-11.323924,-42.372952,-18.239140,-18.998428,-1.743583,-57.095482,53.591263,-56.894958,2.951869,7.482851,-13.616663,8.287905,3.110501,-7.835000,7.114151,-41.584476,-14.085650,18.418333,2.204796,67.978897,46.795181,3.267296,1.174989,2.974914,-3.253127,-39.735355,66.438988,-193.321304,0.000000,212.000000,-1.000000,,,,0.000000,4.000000,4.000000,4.000000,4.000000,4.000000,4.000000,4.000000,4.000000,4.000000,4.000000,4.000000,4.000000,4.000000,4.000000,4.000000,4.000000,4.000000,3.000000,4.000000,4.000000,4.000000,4.000000,4.000000,4.000000,4.000000,4.000000,4.000000,4.000000,4.000000,4.000000,3.000000,4.000000
1578521947.618722,9.000000,0.000000,-90.494003,-16.735144,-200.728867,20.756086,-11.312600,-41.817757,-6.426029,-18.466610,-1.741839,-56.525566,52.512032,-35.299603,7.051481,16.706137,19.217466,1.612950,0.030468,-14.493832,-7.764759,-31.286482,-13.558744,14.810170,0.664130,62.269894,45.209923,2.238387,-0.364647,2.971939,-3.249874,-40.721260,64.321266,-193.640793,0.000000,156.000000,-1.000000,,,,0.000000,4.000000,4.000000,4.000000,4.000000,4.000000,4.000000,4.000000,4.000000,4.000000,4.000000,4.000000,4.000000,4.000000,4.000000,4.000000,4.000000,4.000000,3.000000,4.000000,4.000000,4.000000,4.000000,4.000000,4.000000,4.000000,4.000000,4.000000,4.000000,4.000000,4.000000,3.000000,4.000000
1578521947.626471,10.000000,0.000000,-90.403511,-17.231230,-200.015320,20.222509,-11.301288,-41.775940,-3.342680,-18.448143,5.952210,-56.469040,80.151825,-50.648918,5.505968,1.817636,-13.109443,-4.029689,-0.482383,-16.017799,-10.321096,-16.383400,-13.545186,10.692796,-2.926278,57.592236,43.626255,2.748969,0.661358,3.481788,-3.246624,-40.167717,63.744125,-192.934341,0.000000,199.000000,-1.000000,,,,0.000000,4.000000,4.000000,4.000000,4.000000,4.000000,4.000000,4.000000,4.000000,4.000000,4.000000,4.000000,4.000000,4.000000,4.000000,4.000000,4.000000,4.000000,3.000000,4.000000,4.000000,4.000000,4.000000,4.000000,4.000000,4.000000,4.000000,4.000000,4.000000,4.000000,4.000000,3.000000,4.000000
