title:reading_aloud_1, start timestamp:2020-01-08T16:27:07.699887-06:00, stop timestamp:2020-01-08T16:27:38.629076-06:00, headset type:EPOCFLEX, headset serial:F00000F7, headset firmware:f12, subject name:Kat, channels:74, sampling rate:128, samples:3992      , version:2.0
Timestamp,EEG.Counter,EEG.Interpolated,EEG.Cz,EEG.Fz,EEG.Fp1,EEG.F7,EEG.F3,EEG.FC1,EEG.C3,EEG.FC5,EEG.FT9,EEG.T7,EEG.TP9,EEG.CP5,EEG.CP1,EEG.P3,EEG.P7,EEG.O1,EEG.Pz,EEG.Oz,EEG.O2,EEG.P8,EEG.P4,EEG.CP2,EEG.CP6,EEG.TP10,EEG.T8,EEG.FT10,EEG.FC6,EEG.C4,EEG.FC2,EEG.F4,EEG.F8,EEG.Fp2,EEG.HighBitFlex,EEG.RawCq,EEG.Battery,MarkerIndex,MarkerType,MarkerValueInt,EEG.MarkerHardware,CQ.Cz,CQ.Fz,CQ.Fp1,CQ.F7,CQ.F3,CQ.FC1,CQ.C3,CQ.FC5,CQ.FT9,CQ.T7,CQ.TP9,CQ.CP5,CQ.CP1,CQ.P3,CQ.P7,CQ.O1,CQ.Pz,CQ.Oz,CQ.O2,CQ.P8,CQ.P4,CQ.CP2,CQ.CP6,CQ.TP10,CQ.T8,CQ.FT10,CQ.FC6,CQ.C4,CQ.FC2,CQ.F4,CQ.F8,CQ.Fp2
1578522427.699887,111.000000,0.000000,-450.263550,-211.586212,-512.554810,-348.243530,-53.633072,50.968681,-157.684952,-115.041718,-244.553360,982.179749,26.643055,7.673663,-299.158417,-209.576416,292.115906,-133.152527,-204.703339,72.910088,207.085709,-72.653458,-240.295486,-400.013031,-235.246338,273.648834,320.126160,-94.560013,-234.715073,-274.402924,-337.006317,-598.383179,-575.912537,-517.346619,7680.000000,0.000000,-1.000000,,,,0.000000,4.000000,4.000000,4.000000,4.000000,4.000000,3.000000,4.000000,4.000000,4.000000,4.000000,4.000000,4.000000,4.000000,4.000000,4.000000,4.000000,4.000000,4.000000,4.000000,4.000000,3.000000,4.000000,4.000000,4.000000,4.000000,4.000000,4.000000,4.000000,4.000000,4.000000,4.000000,4.000000
1578522427.707737,112.000000,0.000000,-445.710724,-211.374619,-511.016571,-349.946564,-48.451233,83.738228,-161.117004,-119.029236,-248.924179,990.428345,-5.691280,-0.539139,-300.910522,-217.571976,294.900696,-165.327057,-211.678116,40.529488,174.570938,-39.760288,-243.644943,-392.946350,-202.190567,294.913635,337.754761,-80.619301,-222.685486,-261.820831,-338.207764,-581.374512,-567.131470,-515.803589,7808.000000,0.000000,-1.000000,,,,0.000000,4.000000,4.000000,4.000000,4.000000,4.000000,3.000000,4.000000,4.000000,4.000000,4.000000,4.000000,4.000000,4.000000,4.000000,4.000000,4.000000,4.000000,4.000000,4.000000,4.000000,3.000000,4.000000,4.000000,4.000000,4.000000,4.000000,4.000000,4.000000,4.000000,4.000000,4.000000,4.000000
1578522427.715486,113.000000,0.000000,-444.239380,-209.111969,-494.608124,-337.801758,-47.377140,116.474998,-157.366150,-114.294823,-242.008591,988.412292,16.878513,-14.384753,-312.404510,-227.097992,278.195557,-172.341217,-231.466446,27.155622,148.242523,-72.028221,-275.708984,-397.681610,-182.501205,327.439240,370.237518,-70.282272,-227.078186,-280.020569,-346.587524,-561.818787,-561.948975,-506.569855,7936.000000,0.000000,-1.000000,,,,0.000000,4.000000,4.000000,4.000000,4.000000,4.000000,3.000000,4.000000,4.000000,4.000000,4.000000,4.000000,4.000000,4.000000,4.000000,4.000000,4.000000,4.000000,4.000000,4.000000,4.000000,3.000000,4.000000,4.000000,4.000000,4.000000,4.000000,4.000000,4.000000,4.000000,4.000000,4.000000,4.000000
1578522427.723336,114.000000,0.000000,-441.231018,-209.415680,-499.754547,-348.746002,-49.893867,132.768784,-147.465179,-113.667709,-260.740936,983.834106,24.041122,1.014247,-301.835693,-204.306793,310.737854,-139.348358,-211.234970,59.948978,180.914780,-66.315170,-255.946106,-386.001892,-214.626389,294.804108,337.559601,-92.263268,-230.953674,-278.714905,-341.112732,-563.821045,-564.463928,-510.678680,7808.000000,0.000000,-1.000000,,,,0.000000,4.000000,4.000000,4.000000,4.000000,4.000000,3.000000,4.000000,4.000000,4.000000,4.000000,4.000000,4.000000,4.000000,4.000000,4.000000,4.000000,4.000000,4.000000,4.000000,4.000000,3.000000,4.000000,4.000000,4.000000,4.000000,4.000000,4.000000,4.000000,4.000000,4.000000,4.000000,4.000000
1578522427.731085,115.000000,0.000000,-437.712860,-211.257538,-509.511200,-365.320343,-52.408073,134.687302,-151.933105,-115.092506,-280.480194,981.824646,3.504260,-5.653434,-304.097961,-218.974274,304.273285,-171.516708,-208.972458,39.376209,171.503098,-33.428341,-242.356827,-383.051788,-206.719467,262.201599,304.914337,-106.529984,-229.184265,-270.743866,-334.617767,-573.513672,-561.335388,-517.347473,7680.000000,0.000000,-1.000000,,,,0.000000,4.000000,4.000000,4.000000,4.000000,4.000000,3.000000,4.000000,4.000000,4.000000,4.000000,4.000000,4.000000,4.000000,4.000000,4.000000,4.000000,4.000000,4.000000,4.000000,4.000000,3.000000,4.000000,4.000000,4.000000,4.000000,4.000000,4.000000,4.000000,4.000000,4.000000,4.000000,4.000000
1578522427.738935,116.000000,0.000000,-436.249512,-211.559097,-508.488861,-354.185791,-51.330025,129.424408,-167.165787,-116.003052,-251.994598,971.612061,36.321270,-37.955475,-328.409241,-251.062988,271.661316,-203.652878,-237.994263,7.029142,139.023911,-65.702606,-274.422150,-393.437958,-194.717865,294.759918,337.429932,-83.346527,-229.467896,-284.319275,-341.975464,-584.222168,-554.620178,-513.753235,7808.000000,0.000000,-1.000000,,,,0.000000,4.000000,4.000000,4.000000,4.000000,4.000000,3.000000,4.000000,4.000000,4.000000,4.000000,4.000000,4.000000,4.000000,4.000000,4.000000,4.000000,4.000000,4.000000,4.000000,4.000000,3.000000,4.000000,4.000000,4.000000,4.000000,4.000000,4.000000,4.000000,4.000000,4.000000,4.000000,4.000000
1578522427.746684,117.000000,0.000000,-433.249176,-210.834717,-506.441925,-336.395691,-45.124851,115.961647,-157.255035,-108.194740,-227.127213,963.460938,69.105461,-19.455978,-320.901337,-227.222183,291.902466,-170.628723,-228.525497,27.022114,139.910522,-53.329208,-275.173370,-386.890656,-223.753922,327.285675,369.913025,-63.776001,-229.238434,-281.470856,-342.659119,-594.920044,-548.424561,-511.188171,7808.000000,0.000000,-1.000000,,,,0.000000,4.000000,4.000000,4.000000,4.000000,4.000000,3.000000,4.000000,4.000000,4.000000,4.000000,4.000000,4.000000,4.000000,4.000000,4.000000,4.000000,4.000000,4.000000,4.000000,4.000000,3.000000,4.000000,4.000000,4.000000,4.000000,4.000000,4.000000,4.000000,4.000000,4.000000,4.000000,4.000000
1578522427.754534,118.000000,0.000000,-432.815918,-210.623886,-500.294464,-335.546478,-37.900238,94.820045,-128.892654,-93.727570,-238.182144,976.343628,36.728664,13.383989,-293.400940,-194.174454,324.431091,-137.637573,-204.194397,47.507912,154.642410,-20.455368,-242.077682,-370.093536,-217.376328,294.650696,337.235413,-65.250687,-227.983551,-256.574005,-335.136963,-597.402039,-545.312012,-512.215454,7552.000000,0.000000,-1.000000,,,,0.000000,4.000000,4.000000,4.000000,4.000000,4.000000,3.000000,4.000000,4.000000,4.000000,4.000000,4.000000,4.000000,4.000000,4.000000,4.000000,4.000000,4.000000,4.000000,4.000000,4.000000,3.000000,4.000000,4.000000,4.000000,4.000000,4.000000,4.000000,4.000000,4.000000,4.000000,4.000000,4.000000
1578522427.762283,119.000000,0.000000,-431.357452,-210.413269,-491.076202,-337.775055,-33.759773,65.494453,-123.635551,-86.454361,-227.687546,1008.187805,25.922703,11.319324,-297.210114,-208.852081,314.363068,-169.807632,-215.785080,30.024506,145.257004,-43.511833,-248.502274,-368.697784,-184.338425,314.868866,351.769958,-49.800823,-225.191467,-250.676407,-333.776184,-595.778992,-544.253906,-509.139130,7680.000000,0.000000,-1.000000,,,,0.000000,4.000000,4.000000,4.000000,4.000000,4.000000,3.000000,4.000000,4.000000,4.000000,4.000000,4.000000,4.000000,4.000000,4.000000,4.000000,4.000000,4.000000,4.000000,4.000000,4.000000,3.000000,4.000000,4.000000,4.000000,4.000000,4.000000,4.000000,4.000000,4.000000,4.000000,4.000000,4.000000
1578522427.770133,120.000000,0.000000,-417.592773,-210.202850,-490.072327,-336.924438,-33.726013,41.326397,-130.178589,-87.906364,-207.972687,1040.000122,58.717293,-9.204816,-304.605225,-212.232971,281.740997,-175.278854,-220.697495,40.763714,163.573273,-75.776016,-263.125580,-369.867554,-191.333572,347.374512,384.238708,-29.238201,-219.325241,-258.118042,-326.775757,-595.696045,-537.555786,-504.527435,7808.000000,0.000000,-1.000000,,,,0.000000,4.000000,4.000000,4.000000,4.000000,4.000000,3.000000,4.000000,4.000000,4.000000,4.000000,4.000000,4.000000,4.000000,4.000000,4.000000,4.000000,4.000000,4.000000,4.000000,4.000000,3.000000,4.000000,4.000000,4.000000,4.000000,4.000000,4.000000,4.000000,4.000000,4.000000,4.000000,4.000000
1578522427.777882,121.000000,0.000000,-401.790558,-208.454193,-491.120697,-338.125977,-33.179466,43.336349,-118.766350,-87.818459,-226.226242,1043.062744,33.017551,10.291568,-286.351898,-185.866882,314.279785,-142.283066,-194.835785,66.876793,193.153290,-56.725880,-241.836807,-361.292542,-212.167892,327.539948,363.854462,-43.055115,-216.028992,-255.808640,-309.013092,-595.100342,-529.325928,-499.920349,7808.000000,0.000000,-1.000000,,,,0.000000,4.000000,4.000000,4.000000,4.000000,4.000000,3.000000,4.000000,4.000000,4.000000,4.000000,4.000000,4.000000,4.000000,4.000000,4.000000,4.000000,4.000000,4.000000,4.000000,4.000000,3.000000,4.000000,4.000000,4.000000,4.000000,4.000000,4.000000,4.000000,4.000000,4.000000,4.000000,4.000000
1578522427.785732,122.000000,0.000000,-399.850311,-206.194443,-487.552673,-339.326324,-28.530903,69.446861,-105.827072,-87.730637,-236.769257,1013.301697,0.676841,9.255635,-276.321960,-193.886154,285.247559,-126.756157,-181.820435,82.194534,212.960144,-23.848642,-222.620605,-352.726135,-201.186493,294.904724,331.182922,-57.371037,-211.710403,-252.475906,-301.011749,-593.992432,-527.258118,-490.189667,7808.000000,0.000000,-1.000000,,,,0.000000,4.000000,4.000000,4.000000,4.000000,4.000000,3.000000,4.000000,4.000000,4.000000,4.000000,4.000000,4.000000,4.000000,4.000000,4.000000,4.000000,4.000000,4.000000,4.000000,4.000000,3.000000,4.000000,4.000000,4.000000,4.000000,4.000000,4.000000,4.000000,4.000000,4.000000,4.000000,4.000000
1578522427.793481,123.000000,0.000000,-400.988922,-205.475433,-484.501007,-338.474182,-25.425449,102.197929,-106.746887,-87.130089,-220.122223,1003.057617,15.547958,-11.266440,-278.096893,-202.923035,252.654617,-117.911453,-186.766815,102.112335,234.285645,-28.440178,-225.474915,-347.758026,-188.164795,296.661102,336.492767,-37.826485,-199.703827,-246.069580,-302.249207,-590.321472,-520.577026,-480.468689,7808.000000,0.000000,-1.000000,,,,0.000000,4.000000,4.000000,4.000000,4.000000,4.000000,3.000000,4.000000,4.000000,4.000000,4.000000,4.000000,4.000000,4.000000,4.000000,4.000000,4.000000,4.000000,4.000000,4.000000,4.000000,3.000000,4.000000,4.000000,4.000000,4.000000,4.000000,4.000000,4.000000,4.000000,4.000000,4.000000,4.000000
1578522427.801331,124.000000,0.000000,-398.536652,-205.782776,-488.119080,-338.135712,-27.451305,130.300858,-104.076042,-85.504494,-222.979019,1024.618652,48.352924,10.283287,-268.588043,-174.514984,285.222473,-99.332008,-187.092865,102.010223,225.333405,-35.078403,-228.326355,-343.307709,-190.027908,328.159302,368.976807,-18.301479,-190.786163,-234.541458,-301.946960,-587.679871,-512.876953,-486.142059,7680.000000,0.000000,-1.000000,,,,0.000000,4.000000,4.000000,4.000000,4.000000,4.000000,3.000000,4.000000,4.000000,4.000000,4.000000,4.000000,4.000000,4.000000,4.000000,4.000000,4.000000,4.000000,4.000000,4.000000,4.000000,3.000000,4.000000,4.000000,4.000000,4.000000,4.000000,4.000000,4.000000,4.000000,4.000000,4.000000,4.000000
1578522427.809080,125.000000,0.000000,-396.086823,-205.576996,-493.271973,-338.823212,-24.346931,145.042358,-96.279655,-85.418991,-232.499634,1025.645386,81.125084,36.939671,-260.627136,-162.545593,317.757751,-108.463440,-184.341675,74.728729,192.800385,-24.786915,-226.559570,-341.425934,-189.837875,358.087555,396.812958,-22.385740,-194.697952,-233.794098,-306.260406,-592.220398,-513.389709,-497.450806,7680.000000,0.000000,-1.000000,,,,0.000000,4.000000,4.000000,4.000000,4.000000,4.000000,3.000000,4.000000,4.000000,4.000000,4.000000,4.000000,4.000000,4.000000,4.000000,4.000000,4.000000,4.000000,4.000000,4.000000,4.000000,3.000000,4.000000,4.000000,4.000000,4.000000,4.000000,4.000000,4.000000,4.000000,4.000000,4.000000,4.000000
1578522427.816730,126.000000,0.000000,-394.152283,-205.371414,-488.163330,-338.484375,-15.091815,146.435776,-100.798759,-84.307930,-214.831238,997.440186,48.736267,15.877090,-266.520355,-183.921509,285.132324,-139.124207,-186.208618,59.269386,177.222961,-37.582642,-229.409927,-342.110138,-189.135223,326.447418,372.826385,-21.337715,-193.477600,-238.688507,-313.133636,-594.705139,-507.748138,-493.363617,7680.000000,0.000000,-1.000000,,,,0.000000,4.000000,4.000000,4.000000,4.000000,4.000000,3.000000,4.000000,4.000000,4.000000,4.000000,4.000000,4.000000,4.000000,4.000000,4.000000,4.000000,4.000000,4.000000,4.000000,4.000000,3.000000,4.000000,4.000000,4.000000,4.000000,4.000000,4.000000,4.000000,4.000000,4.000000,4.000000,4.000000
1578522427.824480,127.000000,0.000000,-393.758118,-205.678864,-476.905914,-335.068970,-11.486979,131.417542,-113.005653,-81.146706,-203.334351,982.596619,16.379837,-16.446480,-271.894867,-201.173492,252.539490,-162.062012,-188.586502,64.851143,208.327789,-63.698906,-231.744629,-342.793671,-191.510193,293.813293,340.145874,-14.136889,-185.591827,-237.424179,-313.846130,-592.571960,-496.471161,-482.101013,7808.000000,0.000000,-1.000000,,,,0.000000,4.000000,4.000000,4.000000,4.000000,4.000000,3.000000,4.000000,4.000000,4.000000,4.000000,4.000000,4.000000,4.000000,4.000000,4.000000,4.000000,4.000000,4.000000,4.000000,4.000000,3.000000,4.000000,4.000000,4.000000,4.000000,4.000000,4.000000,4.000000,4.000000,4.000000,4.000000,4.000000
1578522427.832129,0.000000,0.000000,-391.825897,-205.986008,-472.839264,-333.708252,-12.501133,98.978432,-112.379829,-83.116837,-220.054108,991.870422,49.183971,-16.430033,-272.135803,-200.972305,279.466431,-166.515335,-188.397919,68.888855,230.683563,-45.173668,-224.846222,-339.886780,-190.293030,326.339966,372.626221,-17.712496,-185.406235,-233.084198,-312.506653,-591.466553,-492.897766,-478.029175,0.000000,206.000000,-1.000000,,,,0.000000,4.000000,4.000000,4.000000,4.000000,4.000000,3.000000,4.000000,4.000000,4.000000,4.000000,4.000000,4.000000,4.000000,4.000000,4.000000,4.000000,4.000000,4.000000,4.000000,4.000000,3.000000,4.000000,4.000000,4.000000,4.000000,4.000000,4.000000,4.000000,4.000000,4.000000,4.000000,4.000000
1578522427.839879,1.000000,0.000000,-384.254608,-204.754379,-472.879242,-334.913025,-8.386068,75.289711,-96.370010,-78.418335,-227.526352,1014.468262,81.955299,16.406910,-265.196991,-185.386719,312.007477,-157.630875,-187.696701,57.537914,203.273407,-12.307981,-213.852142,-334.418701,-181.384796,354.731598,398.920288,-11.028117,-177.528519,-221.569061,-312.706970,-585.234070,-486.763855,-474.474213,0.000000,183.000000,-1.000000,,,,0.000000,4.000000,4.000000,4.000000,4.000000,4.000000,3.000000,4.000000,4.000000,4.000000,4.000000,4.000000,4.000000,4.000000,4.000000,4.000000,4.000000,4.000000,4.000000,4.000000,4.000000,3.000000,4.000000,4.000000,4.000000,4.000000,4.000000,4.000000,4.000000,4.000000,4.000000,4.000000,4.000000
1578522427.847529,2.000000,0.000000,-374.639587,-204.549637,-467.278168,-326.372986,-3.249477,73.675957,-79.350563,-62.442482,-203.709091,1038.069214,70.591293,45.108452,-252.111282,-165.714157,339.900604,-132.857849,-182.380798,59.531658,192.813721,-7.680288,-210.561371,-326.904785,-169.408539,322.069153,370.829041,15.649578,-161.966370,-205.450058,-312.394257,-570.289856,-473.456573,-470.922821,0.000000,185.000000,-1.000000,,,,0.000000,4.000000,4.000000,4.000000,4.000000,4.000000,4.000000,4.000000,4.000000,4.000000,4.000000,4.000000,4.000000,4.000000,4.000000,4.000000,4.000000,4.000000,4.000000,4.000000,4.000000,3.000000,4.000000,4.000000,4.000000,4.000000,4.000000,4.000000,4.000000,4.000000,4.000000,4.000000,4.000000
1578522427.855278,3.000000,0.000000,-368.623901,-201.268158,-461.682678,-315.790192,-5.810330,74.627922,-74.655830,-55.713371,-188.120758,1041.646484,94.623268,33.268471,-244.166870,-158.368958,307.253021,-99.904480,-166.813797,92.292641,225.441422,-39.980301,-208.299515,-319.911224,-161.033997,342.772736,390.458221,26.915979,-159.240311,-201.142044,-312.081848,-565.104187,-469.906189,-470.451904,0.000000,185.000000,-1.000000,,,,0.000000,4.000000,4.000000,4.000000,4.000000,4.000000,4.000000,4.000000,4.000000,4.000000,4.000000,4.000000,4.000000,4.000000,4.000000,4.000000,4.000000,4.000000,4.000000,4.000000,4.000000,3.000000,4.000000,4.000000,4.000000,4.000000,4.000000,4.000000,4.000000,4.000000,4.000000,4.000000,4.000000
1578522427.862928,4.000000,0.000000,-365.178375,-190.810486,-456.605621,-316.500031,-5.291699,78.655861,-76.632454,-53.093555,-209.471100,1031.886963,127.349152,22.978792,-244.948334,-158.210587,290.535492,-80.317398,-155.877762,110.149063,247.780075,-36.863396,-203.475830,-315.488739,-159.847321,375.250488,422.888275,21.760859,-160.619522,-208.120392,-311.769775,-569.667297,-467.385010,-453.058380,0.000000,236.000000,-1.000000,,,,0.000000,4.000000,4.000000,4.000000,4.000000,4.000000,4.000000,4.000000,4.000000,4.000000,4.000000,4.000000,4.000000,4.000000,4.000000,4.000000,4.000000,4.000000,4.000000,4.000000,4.000000,3.000000,4.000000,4.000000,4.000000,4.000000,4.000000,4.000000,4.000000,4.000000,4.000000,4.000000,4.000000
1578522427.870677,5.000000,0.000000,-361.736267,-178.824799,-449.995178,-308.491241,8.559747,97.551559,-72.966080,-38.168667,-224.646240,1039.060181,94.914116,39.878891,-245.216217,-156.513916,323.065460,-112.544769,-161.362900,77.731224,215.224609,-4.006021,-201.733902,-315.173248,-163.277222,342.567535,394.260254,19.174995,-151.740952,-209.450729,-310.945190,-568.071960,-460.250946,-435.682220,0.000000,210.000000,-1.000000,,,,0.000000,4.000000,4.000000,4.000000,4.000000,4.000000,4.000000,4.000000,4.000000,4.000000,4.000000,4.000000,4.000000,4.000000,4.000000,4.000000,4.000000,4.000000,4.000000,4.000000,4.000000,3.000000,4.000000,4.000000,4.000000,4.000000,4.000000,4.000000,4.000000,4.000000,4.000000,4.000000,4.000000
1578522427.878327,6.000000,0.000000,-357.784790,-177.107513,-447.493896,-297.926331,23.935802,120.530930,-69.816193,-33.515114,-202.883133,1038.533936,62.511509,38.813370,-242.919708,-159.434326,325.819336,-138.073257,-159.663086,66.884262,208.855530,11.382601,-195.891144,-313.832428,-160.037018,309.917267,361.558289,-6.998026,-152.614853,-206.164352,-311.147064,-569.555176,-472.611206,-456.785004,0.000000,216.000000,-1.000000,,,,0.000000,4.000000,4.000000,4.000000,4.000000,4.000000,4.000000,4.000000,4.000000,4.000000,4.000000,4.000000,4.000000,4.000000,4.000000,4.000000,4.000000,4.000000,4.000000,4.000000,4.000000,3.000000,4.000000,4.000000,4.000000,4.000000,4.000000,4.000000,4.000000,4.000000,4.000000,4.000000,4.000000
1578522427.886076,7.000000,0.000000,-354.350067,-180.007324,-448.584869,-315.577118,22.373405,146.051422,-78.977142,-46.302113,-191.398209,1005.187683,66.038742,12.620711,-244.728073,-165.941559,293.185822,-105.114670,-151.811111,99.637894,241.467194,-20.936474,-195.182434,-314.031433,-145.518005,342.427856,394.017273,-30.580772,-161.693008,-208.522293,-311.348724,-578.729248,-484.959106,-469.661560,0.000000,215.000000,-1.000000,,,,0.000000,4.000000,4.000000,4.000000,4.000000,4.000000,4.000000,4.000000,4.000000,4.000000,4.000000,4.000000,4.000000,4.000000,4.000000,4.000000,4.000000,4.000000,4.000000,4.000000,4.000000,3.000000,4.000000,4.000000,4.000000,4.000000,4.000000,4.000000,4.000000,4.000000,4.000000,4.000000,4.000000
1578522427.893726,8.000000,0.000000,-351.944427,-175.724747,-443.520905,-327.569244,18.248466,173.084869,-83.513550,-43.691708,-203.514496,991.362000,98.793213,8.505527,-243.970520,-170.391006,263.661865,-93.727501,-161.402893,102.102356,234.559052,-53.223228,-209.346222,-315.768677,-151.526337,374.905945,426.443756,2.270322,-152.300552,-209.339417,-306.421997,-569.432556,-454.730560,-436.371399,0.000000,195.000000,-1.000000,,,,0.000000,4.000000,4.000000,4.000000,4.000000,4.000000,4.000000,4.000000,4.000000,4.000000,4.000000,4.000000,4.000000,4.000000,4.000000,4.000000,4.000000,4.000000,4.000000,4.000000,4.000000,3.000000,4.000000,4.000000,4.000000,4.000000,4.000000,4.000000,4.000000,4.000000,4.000000,4.000000,4.000000
1578522427.901476,9.000000,0.000000,-340.823273,-168.882370,-436.410706,-306.216034,32.589191,174.963058,-62.404396,-25.699299,-201.259705,1023.191162,126.386726,40.804714,-233.470139,-153.810349,296.218719,-105.428642,-159.190201,84.564354,222.016800,-37.785393,-199.393280,-302.119568,-180.092758,342.223358,400.376282,35.088566,-137.789276,-198.360840,-299.961731,-543.222107,-421.455322,-414.909363,0.000000,183.000000,-1.000000,,,,0.000000,4.000000,4.000000,4.000000,4.000000,4.000000,4.000000,4.000000,4.000000,4.000000,4.000000,4.000000,4.000000,4.000000,4.000000,4.000000,4.000000,4.000000,4.000000,4.000000,4.000000,3.000000,4.000000,4.000000,4.000000,4.000000,4.000000,4.000000,4.000000,4.000000,4.000000,4.000000,4.000000
1578522427.909125,10.000000,0.000000,-325.097839,-166.149384,-435.461456,-300.781616,46.915577,144.018860,-40.803532,-20.545393,-197.981522,1053.962891,93.952652,73.584419,-222.467438,-122.374489,328.743011,-78.656548,-132.364349,104.479790,253.589661,-4.927094,-166.373383,-279.253357,-169.143433,309.573425,367.668213,8.899630,-135.087387,-181.752228,-298.123291,-535.499390,-430.777466,-429.366272,0.000000,201.000000,-1.000000,,,,0.000000,4.000000,4.000000,4.000000,4.000000,4.000000,4.000000,4.000000,4.000000,4.000000,4.000000,4.000000,4.000000,4.000000,4.000000,4.000000,4.000000,4.000000,4.000000,4.000000,4.000000,3.000000,4.000000,4.000000,4.000000,4.000000,4.000000,4.000000,4.000000,4.000000,4.000000,4.000000,4.000000
1578522427.916875,11.000000,0.000000,-321.695801,-167.521683,-437.077301,-313.814148,41.227638,111.567154,-47.942215,-24.114592,-207.014297,1055.473022,96.422798,74.536476,-220.193695,-123.277756,316.106567,-74.475327,-131.719162,104.375313,249.746323,27.898346,-156.976242,-277.435638,-136.153778,320.033112,379.095428,-22.391321,-134.952301,-178.493546,-298.338013,-547.271545,-440.603088,-422.270233,0.000000,208.000000,-1.000000,,,,0.000000,4.000000,4.000000,4.000000,4.000000,4.000000,4.000000,4.000000,4.000000,4.000000,4.000000,4.000000,4.000000,4.000000,4.000000,4.000000,4.000000,4.000000,4.000000,4.000000,4.000000,3.000000,4.000000,4.000000,4.000000,4.000000,4.000000,4.000000,4.000000,4.000000,4.000000,4.000000,4.000000
1578522427.924525,12.000000,0.000000,-323.938202,-167.354172,-434.588928,-300.679840,33.494102,89.404305,-59.176323,-22.552015,-189.884216,1066.212402,129.146881,45.231171,-222.024780,-149.308319,283.482788,-106.708549,-151.074631,84.270935,231.547867,-4.437244,-187.588486,-290.491516,-122.684296,352.533569,411.536835,-1.856109,-138.407089,-186.520187,-298.039673,-551.339661,-431.444519,-405.437714,0.000000,200.000000,-1.000000,,,,0.000000,4.000000,4.000000,4.000000,4.000000,4.000000,4.000000,4.000000,4.000000,4.000000,4.000000,4.000000,4.000000,4.000000,4.000000,4.000000,4.000000,4.000000,4.000000,4.000000,4.000000,3.000000,4.000000,4.000000,4.000000,4.000000,4.000000,4.000000,4.000000,4.000000,4.000000,4.000000,4.000000
1578522427.932374,13.000000,0.000000,-319.511719,-164.109894,-434.154358,-294.225311,37.050350,82.135414,-47.322273,-21.503822,-168.155869,1065.658936,120.299789,46.724403,-220.264297,-138.389786,278.071075,-89.678764,-140.154312,102.648201,253.367599,-36.740498,-188.426544,-286.098480,-154.869308,352.693878,410.099670,6.350875,-140.319962,-182.743912,-298.254456,-547.711426,-442.807953,-417.339966,0.000000,200.000000,-1.000000,,,,0.000000,4.000000,4.000000,4.000000,4.000000,4.000000,4.000000,4.000000,4.000000,4.000000,4.000000,4.000000,4.000000,4.000000,4.000000,4.000000,4.000000,4.000000,4.000000,4.000000,4.000000,3.000000,4.000000,4.000000,4.000000,4.000000,4.000000,4.000000,4.000000,4.000000,4.000000,4.000000,4.000000
1578522427.940124,14.000000,0.000000,-314.576813,-160.356033,-436.284302,-317.007996,38.038940,82.053276,-36.505722,-23.020781,-183.885147,1039.977905,125.820518,66.164856,-217.992752,-115.687294,300.357117,-56.768570,-125.142372,114.340424,251.575775,-3.883246,-162.597092,-271.453400,-159.842636,327.212952,392.766479,5.831703,-121.718102,-162.561172,-296.417725,-546.138062,-448.519012,-418.973907,0.000000,199.000000,-1.000000,,,,0.000000,4.000000,4.000000,4.000000,4.000000,4.000000,4.000000,4.000000,4.000000,4.000000,4.000000,4.000000,4.000000,4.000000,4.000000,4.000000,4.000000,4.000000,4.000000,4.000000,4.000000,3.000000,4.000000,4.000000,4.000000,4.000000,4.000000,4.000000,4.000000,4.000000,4.000000,4.000000,4.000000
1578522427.947973,15.000000,0.000000,-314.775055,-159.682861,-425.591583,-311.562805,39.026543,78.894302,-45.699986,-19.408016,-180.624344,1044.066162,134.925461,54.816643,-219.313217,-133.007507,300.056763,-89.019493,-140.401840,82.431213,219.016495,28.941151,-168.588333,-274.771698,-138.144333,348.937042,414.937805,38.646385,-107.237411,-161.372971,-294.070038,-548.668823,-420.378174,-396.503632,0.000000,192.000000,-1.000000,,,,0.000000,4.000000,4.000000,4.000000,4.000000,4.000000,4.000000,4.000000,4.000000,4.000000,4.000000,4.000000,4.000000,4.000000,4.000000,4.000000,4.000000,4.000000,4.000000,4.000000,4.000000,3.000000,4.000000,4.000000,4.000000,4.000000,4.000000,4.000000,4.000000,4.000000,4.000000,4.000000,4.000000
1578522427.955723,16.000000,0.000000,-315.485931,-158.497543,-407.730103,-278.430725,45.654182,87.020538,-53.859413,-12.209121,-147.623199,1067.124634,102.482849,48.095158,-220.632370,-150.823212,294.115692,-121.238167,-155.133240,62.348782,212.643631,-3.395483,-195.599243,-286.804626,-135.954910,373.203491,432.471588,50.402611,-122.514786,-186.852631,-293.775970,-551.709900,-416.368042,-390.978943,0.000000,200.000000,-1.000000,,,,0.000000,4.000000,4.000000,4.000000,4.000000,4.000000,4.000000,4.000000,4.000000,4.000000,4.000000,4.000000,4.000000,4.000000,4.000000,4.000000,4.000000,4.000000,4.000000,4.000000,4.000000,3.000000,4.000000,4.000000,4.000000,4.000000,4.000000,4.000000,4.000000,4.000000,4.000000,4.000000,4.000000
1578522427.963572,17.000000,0.000000,-314.657623,-155.774933,-408.348022,-280.716400,48.685452,119.754028,-48.677349,-12.709732,-154.655060,1046.570313,105.457291,56.765011,-218.360458,-138.364700,278.436951,-98.040009,-152.414001,74.081306,222.687408,-35.186958,-198.993378,-287.030640,-151.716385,378.471313,431.526306,19.070156,-133.161499,-194.870895,-291.943726,-546.542847,-441.079895,-399.818726,0.000000,184.000000,-1.000000,,,,0.000000,4.000000,4.000000,4.000000,4.000000,4.000000,4.000000,4.000000,4.000000,4.000000,4.000000,4.000000,4.000000,4.000000,4.000000,4.000000,4.000000,4.000000,4.000000,4.000000,4.000000,3.000000,4.000000,4.000000,4.000000,4.000000,4.000000,4.000000,4.000000,3.000000,4.000000,4.000000,4.000000
1578522427.971322,18.000000,0.000000,-314.855774,-156.644806,-423.837097,-312.743378,45.047024,146.300934,-46.577389,-20.389330,-186.808105,1018.857117,125.351830,44.913376,-216.603638,-131.559662,270.466217,-68.198372,-149.697479,82.212357,232.208313,-2.331260,-184.435410,-279.564117,-161.308258,367.836426,418.274261,23.153650,-117.643730,-176.214493,-287.036407,-527.534729,-428.843933,-399.418915,0.000000,144.000000,-1.000000,,,,0.000000,4.000000,4.000000,4.000000,4.000000,4.000000,4.000000,4.000000,4.000000,4.000000,4.000000,4.000000,4.000000,4.000000,4.000000,4.000000,4.000000,4.000000,4.000000,4.000000,4.000000,3.000000,4.000000,4.000000,4.000000,4.000000,4.000000,4.000000,4.000000,3.000000,4.000000,4.000000,4.000000
1578522427.979171,19.000000,0.000000,-315.053741,-158.026627,-420.849182,-317.046021,44.489155,156.411057,-52.171837,-24.471504,-189.698212,1031.171631,92.918785,43.842819,-216.387024,-135.530670,303.016266,-76.848122,-151.599060,78.540398,232.488922,26.389021,-181.686874,-278.258911,-153.967468,335.160889,385.548309,50.822803,-106.756851,-168.345963,-285.210907,-504.955933,-406.363800,-398.506653,0.000000,162.000000,-1.000000,,,,0.000000,4.000000,4.000000,4.000000,4.000000,4.000000,4.000000,4.000000,4.000000,4.000000,4.000000,4.000000,4.000000,4.000000,4.000000,4.000000,4.000000,4.000000,4.000000,4.000000,4.000000,3.000000,4.000000,4.000000,4.000000,4.000000,4.000000,4.000000,4.000000,3.000000,4.000000,4.000000,4.000000
1578522427.986921,20.000000,0.000000,-312.687408,-155.817307,-412.223175,-298.267426,45.470306,172.664902,-53.658127,-21.882931,-162.841858,1026.550659,94.364334,55.081028,-217.196289,-138.984879,304.764526,-77.796921,-153.498749,81.025963,229.179504,15.080580,-185.094940,-280.544739,-140.480164,323.543671,377.470459,41.028393,-109.727020,-169.716080,-284.412872,-492.143280,-424.931793,-400.672272,0.000000,212.000000,-1.000000,,,,0.000000,4.000000,4.000000,4.000000,4.000000,4.000000,4.000000,4.000000,4.000000,4.000000,4.000000,4.000000,4.000000,4.000000,4.000000,4.000000,4.000000,4.000000,4.000000,4.000000,4.000000,3.000000,4.000000,4.000000,4.000000,4.000000,4.000000,4.000000,4.000000,3.000000,4.000000,4.000000,4.000000
1578522427.994770,21.000000,0.000000,-309.810608,-154.123032,-427.708405,-307.712738,44.399197,175.569153,-54.117290,-20.322586,-167.294403,996.293335,127.090477,38.102871,-216.466263,-141.410004,272.152069,-47.975533,-145.652939,106.585960,261.770844,32.501396,-169.012405,-273.084717,-137.262756,356.040649,409.913483,29.192492,-110.130112,-162.366882,-281.564362,-485.497284,-439.378662,-403.861328,0.000000,159.000000,-1.000000,,,,0.000000,4.000000,4.000000,4.000000,4.000000,4.000000,4.000000,4.000000,4.000000,4.000000,4.000000,4.000000,4.000000,4.000000,4.000000,4.000000,4.000000,4.000000,4.000000,4.000000,4.000000,3.000000,4.000000,4.000000,4.000000,4.000000,4.000000,4.000000,4.000000,3.000000,4.000000,4.000000,4.000000
1578522428.002520,22.000000,0.000000,-305.911072,-154.481735,-444.716583,-334.071686,44.867619,143.085892,-52.524712,-19.789444,-177.383514,1015.297058,126.963387,43.705795,-211.121597,-124.858337,304.700409,-28.440376,-128.584213,133.146042,294.329590,55.032997,-148.843384,-260.503937,-140.202423,379.787170,431.554871,31.727402,-112.071266,-156.050674,-280.257141,-487.575897,-437.400818,-418.329254,0.000000,213.000000,-1.000000,,,,0.000000,4.000000,4.000000,4.000000,4.000000,4.000000,4.000000,4.000000,4.000000,4.000000,4.000000,4.000000,4.000000,4.000000,4.000000,4.000000,4.000000,4.000000,4.000000,4.000000,4.000000,3.000000,4.000000,4.000000,4.000000,4.000000,4.000000,4.000000,4.000000,3.000000,4.000000,4.000000,4.000000
1578522428.010369,23.000000,0.000000,-297.400024,-154.327255,-444.271881,-333.224792,44.309929,119.865883,-43.754238,-18.231192,-176.693314,1047.102295,94.528732,76.482597,-203.730988,-102.169373,337.216248,-32.514500,-124.353065,125.833405,267.368591,48.311298,-150.745834,-258.704987,-136.985291,347.099701,398.815613,-0.612018,-121.702782,-156.920258,-279.976898,-500.421661,-461.065979,-441.500671,0.000000,213.000000,-1.000000,,,,0.000000,4.000000,4.000000,4.000000,4.000000,4.000000,4.000000,4.000000,4.000000,4.000000,4.000000,4.000000,4.000000,4.000000,4.000000,4.000000,4.000000,4.000000,4.000000,4.000000,4.000000,3.000000,4.000000,4.000000,4.000000,4.000000,4.000000,4.000000,4.000000,3.000000,4.000000,4.000000,4.000000
1578522428.018119,24.000000,0.000000,-288.897491,-154.685745,-454.596832,-323.147980,40.675877,138.720383,-43.197662,-18.725782,-197.542252,1042.465454,121.100868,73.842018,-204.040070,-112.323616,304.571320,-40.174294,-134.485123,109.810135,234.793518,39.545036,-160.338669,-264.087311,-135.309845,324.188477,373.801422,-32.919098,-126.196465,-158.301804,-280.722565,-509.152008,-481.630554,-455.930969,0.000000,163.000000,-1.000000,,,,0.000000,4.000000,4.000000,4.000000,4.000000,4.000000,4.000000,4.000000,4.000000,4.000000,4.000000,4.000000,4.000000,4.000000,4.000000,4.000000,4.000000,4.000000,4.000000,4.000000,4.000000,3.000000,4.000000,4.000000,4.000000,4.000000,4.000000,4.000000,4.000000,3.000000,4.000000,4.000000,4.000000
1578522428.025868,25.000000,0.000000,-280.403473,-157.607971,-469.526855,-331.542786,36.019817,147.812424,-50.846771,-21.271158,-217.344711,1018.346069,109.697716,41.460480,-206.400131,-128.108734,271.959076,-45.262325,-133.837814,122.520844,259.686951,28.736263,-154.537308,-261.771942,-136.712997,356.684814,406.248108,-16.988743,-122.480522,-158.656311,-286.082855,-507.617218,-463.200226,-454.962219,0.000000,170.000000,-1.000000,,,,0.000000,4.000000,4.000000,4.000000,4.000000,4.000000,4.000000,4.000000,4.000000,4.000000,4.000000,4.000000,4.000000,4.000000,4.000000,4.000000,4.000000,4.000000,4.000000,4.000000,4.000000,3.000000,4.000000,4.000000,4.000000,4.000000,4.000000,4.000000,4.000000,3.000000,4.000000,4.000000,4.000000
1578522428.033618,26.000000,0.000000,-261.661530,-158.476013,-454.698364,-327.108673,35.983795,117.921021,-40.026695,-17.147324,-194.050446,1028.609741,89.588020,57.829277,-199.014252,-112.083183,304.507629,-37.524754,-118.832184,141.372681,288.658020,9.220346,-149.767380,-257.920410,-133.499359,381.969147,428.918793,6.617989,-119.793945,-156.446381,-290.412170,-508.135223,-445.301117,-444.763672,0.000000,203.000000,-1.000000,,,,0.000000,4.000000,4.000000,4.000000,4.000000,4.000000,4.000000,4.000000,4.000000,4.000000,4.000000,4.000000,4.000000,4.000000,4.000000,4.000000,4.000000,4.000000,4.000000,4.000000,4.000000,3.000000,4.000000,4.000000,4.000000,4.000000,4.000000,4.000000,4.000000,3.000000,4.000000,4.000000,4.000000
1578522428.041367,27.000000,0.000000,-236.271667,-157.804718,-441.935974,-307.807220,37.486275,93.700539,-26.653336,-13.027612,-161.035889,1040.914429,117.703560,74.694527,-197.276779,-103.253151,337.023621,-28.769281,-115.123611,125.333870,256.061676,2.544460,-165.002228,-266.380432,-136.955612,366.715393,419.259094,9.688293,-116.597221,-160.392502,-292.685852,-508.139923,-445.881470,-439.703522,0.000000,201.000000,-1.000000,,,,0.000000,4.000000,4.000000,4.000000,4.000000,4.000000,4.000000,4.000000,4.000000,4.000000,4.000000,4.000000,4.000000,4.000000,4.000000,4.000000,4.000000,4.000000,4.000000,4.000000,4.000000,4.000000,4.000000,4.000000,4.000000,4.000000,4.000000,4.000000,4.000000,3.000000,4.000000,4.000000,4.000000
1578522428.049117,28.000000,0.000000,-218.599487,-158.672546,-460.468384,-320.832733,34.371864,124.376068,-44.575401,-25.835096,-152.669724,1027.565918,87.842270,47.953163,-215.028214,-128.790924,306.942993,-61.048203,-136.034134,92.900841,223.497910,-4.124752,-187.401337,-279.960205,-153.741730,367.887146,422.942413,26.088861,-105.711395,-174.591080,-291.880341,-504.554871,-440.307373,-441.315094,0.000000,190.000000,-1.000000,,,,0.000000,4.000000,4.000000,4.000000,4.000000,4.000000,4.000000,4.000000,4.000000,4.000000,4.000000,4.000000,4.000000,4.000000,4.000000,4.000000,4.000000,4.000000,4.000000,4.000000,4.000000,4.000000,4.000000,4.000000,4.000000,4.000000,4.000000,4.000000,4.000000,3.000000,4.000000,4.000000,4.000000
1578522428.056767,29.000000,0.000000,-209.662949,-161.077988,-466.674591,-348.204224,31.773390,157.072205,-58.376980,-35.552853,-153.542694,1014.230591,55.446735,32.007774,-225.069595,-146.098038,277.918121,-93.294846,-151.795532,62.551533,212.505188,-5.146268,-188.239578,-277.628967,-161.793121,380.339752,440.981018,36.832005,-88.682610,-176.467773,-281.332062,-512.255432,-434.738861,-436.258392,0.000000,186.000000,-1.000000,,,,0.000000,4.000000,4.000000,4.000000,4.000000,4.000000,4.000000,4.000000,4.000000,4.000000,4.000000,4.000000,4.000000,4.000000,4.000000,4.000000,4.000000,4.000000,4.000000,4.000000,4.000000,4.000000,4.000000,4.000000,4.000000,4.000000,4.000000,4.000000,4.000000,3.000000,4.000000,4.000000,4.000000
1578522428.064516,30.000000,0.000000,-204.325073,-160.404083,-440.054047,-336.573975,45.074951,189.735641,-36.267319,-20.132683,-141.594269,1021.421509,88.211800,47.360382,-206.895813,-126.977577,287.896606,-73.714371,-133.695007,95.309494,245.113190,27.679392,-159.333389,-259.402618,-143.169785,347.651733,414.386169,19.872095,-76.286232,-160.906693,-267.204559,-529.179077,-432.252838,-423.001617,0.000000,192.000000,-1.000000,,,,0.000000,4.000000,4.000000,4.000000,4.000000,4.000000,4.000000,4.000000,4.000000,4.000000,4.000000,4.000000,4.000000,4.000000,4.000000,4.000000,4.000000,4.000000,4.000000,4.000000,4.000000,4.000000,4.000000,4.000000,4.000000,4.000000,4.000000,4.000000,4.000000,3.000000,4.000000,4.000000,4.000000
1578522428.072166,31.000000,0.000000,-199.505371,-156.653931,-422.178101,-306.493805,60.414490,176.725403,-18.795155,-1.138192,-113.247551,1040.400146,99.405640,62.184818,-184.637634,-101.209572,294.788208,-40.820145,-106.381836,128.034698,277.688599,54.831200,-135.071487,-242.220139,-115.847130,319.098938,381.664093,19.339403,-77.235588,-154.591934,-263.860443,-537.880676,-419.512909,-420.014526,0.000000,193.000000,-1.000000,,,,0.000000,4.000000,4.000000,4.000000,4.000000,4.000000,4.000000,4.000000,4.000000,4.000000,4.000000,4.000000,4.000000,4.000000,4.000000,4.000000,4.000000,4.000000,4.000000,4.000000,4.000000,4.000000,4.000000,4.000000,4.000000,4.000000,4.000000,4.000000,4.000000,3.000000,4.000000,4.000000,4.000000
1578522428.079915,32.000000,0.000000,-183.408432,-146.753693,-422.268738,-299.520630,60.354076,144.240982,-20.827642,9.119357,-80.313789,1057.308350,74.178032,69.814941,-181.376068,-95.980156,301.672882,-20.266506,-102.172890,137.650253,281.000641,22.468676,-135.449234,-228.644592,-108.551796,351.600372,414.102936,43.935448,-84.850662,-150.334778,-262.058105,-530.676086,-410.888245,-420.107330,7936.000000,0.000000,-1.000000,,,,0.000000,4.000000,4.000000,4.000000,4.000000,4.000000,4.000000,4.000000,4.000000,4.000000,4.000000,4.000000,4.000000,4.000000,4.000000,4.000000,4.000000,4.000000,4.000000,4.000000,4.000000,4.000000,4.000000,4.000000,4.000000,4.000000,4.000000,4.000000,4.000000,3.000000,4.000000,4.000000,4.000000
1578522428.087565,33.000000,0.000000,-163.737839,-135.837708,-416.205444,-297.682648,67.986031,111.789047,-6.960660,19.879469,-47.412968,1069.071655,106.924362,88.719482,-180.681870,-95.371353,334.191742,-45.887264,-101.045074,119.051064,280.206818,12.189796,-130.185577,-214.569794,-116.648369,384.069275,446.509369,56.199203,-86.304268,-128.645981,-251.026825,-506.042877,-409.451721,-401.225677,8448.000000,0.000000,-1.000000,,,,0.000000,4.000000,4.000000,4.000000,4.000000,4.000000,4.000000,4.000000,4.000000,4.000000,4.000000,4.000000,4.000000,4.000000,4.000000,4.000000,4.000000,4.000000,4.000000,4.000000,4.000000,4.000000,4.000000,4.000000,4.000000,4.000000,4.000000,4.000000,4.000000,3.000000,4.000000,4.000000,4.000000
1578522428.095315,34.000000,0.000000,-157.933075,-134.163406,-408.096954,-292.256775,83.815483,79.369568,6.892454,20.372410,-50.955296,1068.002563,139.637955,103.502556,-175.372986,-87.070854,366.678070,-53.533684,-89.661980,113.290985,276.336884,44.998119,-111.593857,-205.124451,-105.762489,351.377502,413.755157,54.604542,-79.551300,-110.568619,-235.391190,-474.767609,-393.144836,-375.696259,7808.000000,0.000000,-1.000000,,,,0.000000,4.000000,4.000000,4.000000,4.000000,4.000000,4.000000,4.000000,4.000000,4.000000,4.000000,4.000000,4.000000,4.000000,4.000000,4.000000,4.000000,4.000000,4.000000,4.000000,4.000000,4.000000,4.000000,4.000000,4.000000,4.000000,4.000000,4.000000,4.000000,3.000000,4.000000,4.000000,4.000000
1578522428.102964,35.000000,0.000000,-159.826416,-141.208725,-409.227295,-303.759399,77.064995,73.136353,-12.088798,1.890498,-79.109467,1037.703735,107.190620,74.168289,-180.838638,-96.214554,334.003693,-36.557076,-89.572311,122.408463,263.752838,37.773636,-115.584831,-204.919327,-84.631088,318.718445,381.033722,49.421734,-80.497391,-111.996513,-222.335281,-459.421051,-378.392731,-371.217987,7936.000000,0.000000,-1.000000,,,,0.000000,4.000000,4.000000,4.000000,4.000000,4.000000,4.000000,4.000000,4.000000,4.000000,4.000000,4.000000,4.000000,4.000000,4.000000,4.000000,4.000000,4.000000,4.000000,4.000000,4.000000,4.000000,4.000000,4.000000,4.000000,4.000000,4.000000,4.000000,4.000000,3.000000,4.000000,4.000000,4.000000
1578522428.110714,36.000000,0.000000,-159.153778,-141.580338,-410.356537,-314.224854,66.731522,105.883728,-27.974144,-5.803700,-80.568825,1014.101990,74.775742,41.786427,-188.350113,-111.502953,301.362000,-30.879492,-100.764793,119.721954,251.694229,5.428168,-138.033340,-205.227234,-96.854149,351.220245,413.473206,44.756927,-91.698944,-112.910156,-220.061661,-457.935974,-381.091248,-375.462158,8192.000000,0.000000,-1.000000,,,,0.000000,4.000000,4.000000,4.000000,4.000000,4.000000,4.000000,4.000000,4.000000,4.000000,4.000000,4.000000,4.000000,4.000000,4.000000,4.000000,4.000000,4.000000,4.000000,4.000000,4.000000,4.000000,4.000000,4.000000,4.000000,4.000000,4.000000,4.000000,4.000000,3.000000,4.000000,4.000000,4.000000
1578522428.118363,37.000000,0.000000,-160.533081,-135.797745,-405.330811,-298.526031,77.946838,138.598358,-7.433350,10.612360,-52.283123,1045.908325,107.521477,74.565155,-178.930984,-97.545296,333.881134,-57.002460,-104.253769,87.294540,219.134842,-11.500337,-146.613266,-205.022003,-123.936783,383.689545,445.880219,53.430119,-96.735451,-111.258781,-228.046722,-456.452393,-380.710144,-374.061066,7936.000000,0.000000,-1.000000,,,,0.000000,4.000000,4.000000,4.000000,4.000000,4.000000,4.000000,4.000000,4.000000,4.000000,4.000000,4.000000,4.000000,4.000000,4.000000,4.000000,4.000000,4.000000,4.000000,4.000000,4.000000,4.000000,4.000000,4.000000,4.000000,4.000000,4.000000,4.000000,4.000000,3.000000,4.000000,4.000000,4.000000
1578522428.126113,38.000000,0.000000,-162.936661,-143.354248,-404.925476,-286.432617,80.945816,169.741806,13.086905,22.909441,-26.076996,1075.631714,140.234467,107.311104,-166.444366,-76.934937,366.367767,-70.278793,-102.098236,81.053398,215.325958,7.485523,-143.389725,-206.355438,-121.248741,364.331482,441.844604,48.761303,-99.715637,-118.327011,-232.946884,-473.944672,-388.534576,-387.020325,7936.000000,0.000000,-1.000000,,,,0.000000,4.000000,4.000000,4.000000,4.000000,4.000000,4.000000,4.000000,4.000000,4.000000,4.000000,4.000000,4.000000,4.000000,4.000000,4.000000,4.000000,4.000000,4.000000,4.000000,4.000000,4.000000,4.000000,4.000000,4.000000,4.000000,4.000000,4.000000,4.000000,3.000000,4.000000,4.000000,4.000000
1578522428.133763,39.000000,0.000000,-163.799362,-155.518585,-413.751312,-302.043610,62.403336,188.546432,5.381510,13.655762,-33.743225,1046.863770,122.658333,75.921738,-164.739456,-76.345177,333.693726,-37.387997,-96.867935,113.792854,247.931137,20.298550,-141.707870,-210.251648,-109.845444,361.915863,439.864288,16.404852,-108.333870,-127.439453,-233.739578,-505.778412,-413.787079,-412.787170,7936.000000,0.000000,-1.000000,,,,0.000000,4.000000,4.000000,4.000000,4.000000,4.000000,4.000000,4.000000,4.000000,4.000000,4.000000,4.000000,4.000000,4.000000,4.000000,4.000000,4.000000,4.000000,4.000000,4.000000,4.000000,4.000000,4.000000,4.000000,4.000000,4.000000,4.000000,4.000000,4.000000,3.000000,4.000000,4.000000,4.000000
1578522428.141512,40.000000,0.000000,-163.635559,-152.798965,-417.952942,-318.664642,55.674263,206.306595,-3.854641,4.924157,-65.504356,1028.893799,90.227982,51.230431,-165.600357,-79.345757,314.898468,-4.530097,-94.206963,136.755981,267.170380,47.970558,-141.053345,-214.656784,-113.325340,355.912933,428.142395,18.439728,-106.174255,-128.337662,-234.531479,-510.400848,-412.860474,-422.630768,7936.000000,0.000000,-1.000000,,,,0.000000,4.000000,4.000000,4.000000,4.000000,4.000000,4.000000,4.000000,4.000000,4.000000,4.000000,4.000000,4.000000,4.000000,4.000000,4.000000,4.000000,4.000000,4.000000,4.000000,4.000000,4.000000,4.000000,4.000000,4.000000,4.000000,4.000000,4.000000,4.000000,3.000000,4.000000,4.000000,4.000000
1578522428.149162,41.000000,0.000000,-161.933456,-141.876938,-419.073456,-323.987030,60.746796,238.407990,-1.286684,8.508976,-75.182442,1049.916260,122.958267,62.461254,-165.434769,-82.856155,347.404083,-27.089670,-98.728142,115.080772,234.595535,75.614899,-136.809723,-215.980591,-110.647911,360.685211,436.432190,51.241802,-91.196289,-126.158035,-231.732849,-484.762238,-390.909149,-416.567108,7680.000000,0.000000,-1.000000,,,,0.000000,4.000000,4.000000,4.000000,4.000000,4.000000,4.000000,4.000000,4.000000,4.000000,4.000000,4.000000,4.000000,4.000000,4.000000,4.000000,4.000000,4.000000,4.000000,4.000000,4.000000,4.000000,4.000000,4.000000,4.000000,4.000000,4.000000,4.000000,4.000000,3.000000,4.000000,4.000000,4.000000
1578522428.157011,42.000000,0.000000,-159.207428,-140.196594,-428.910797,-333.919434,61.711689,249.964447,-0.259756,10.551749,-64.338028,1046.815063,141.809677,54.193665,-164.756500,-86.875862,335.774628,-24.498478,-91.449928,136.504150,266.155792,76.052101,-125.903687,-212.687683,-105.921883,392.632233,468.816284,38.882866,-86.489708,-125.519058,-236.629318,-472.995422,-399.236176,-418.714661,7936.000000,0.000000,-1.000000,,,,0.000000,4.000000,4.000000,4.000000,4.000000,4.000000,4.000000,4.000000,4.000000,4.000000,4.000000,4.000000,4.000000,4.000000,4.000000,4.000000,4.000000,4.000000,4.000000,4.000000,4.000000,4.000000,4.000000,4.000000,4.000000,4.000000,4.000000,4.000000,4.000000,3.000000,4.000000,4.000000,4.000000
1578522428.164761,43.000000,0.000000,-159.561035,-142.107681,-432.584442,-337.688080,62.162796,217.406784,-1.285137,9.002736,-71.965996,1034.998901,109.360168,60.806137,-163.566116,-81.147957,360.054260,-9.602184,-80.589241,140.470215,273.581970,93.411949,-115.521378,-212.987823,-107.354424,367.624207,440.142334,6.536292,-84.351936,-121.803795,-250.751663,-479.701904,-412.683105,-424.962616,7936.000000,0.000000,-1.000000,,,,0.000000,4.000000,4.000000,4.000000,4.000000,4.000000,4.000000,4.000000,4.000000,4.000000,4.000000,4.000000,4.000000,4.000000,4.000000,4.000000,4.000000,4.000000,4.000000,4.000000,4.000000,4.000000,4.000000,4.000000,4.000000,4.000000,4.000000,4.000000,4.000000,3.000000,4.000000,4.000000,4.000000
1578522428.172610,44.000000,0.000000,-162.478394,-140.939926,-419.331360,-325.042694,63.639095,184.881683,-2.309493,12.070657,-78.560699,1055.502441,108.225166,78.694046,-172.120499,-93.374504,387.899323,-41.900272,-97.431732,108.022049,241.000687,101.523666,-126.687904,-222.518417,-89.811172,335.974548,407.394501,19.350269,-66.831680,-119.117889,-246.911163,-479.735046,-386.629395,-412.742767,7936.000000,0.000000,-1.000000,,,,0.000000,4.000000,4.000000,4.000000,4.000000,4.000000,4.000000,4.000000,4.000000,4.000000,4.000000,4.000000,4.000000,4.000000,4.000000,4.000000,4.000000,4.000000,4.000000,4.000000,4.000000,4.000000,4.000000,4.000000,4.000000,4.000000,4.000000,4.000000,4.000000,3.000000,4.000000,4.000000,4.000000
1578522428.180360,45.000000,0.000000,-162.828735,-139.773346,-412.245361,-320.102264,64.088280,168.286545,-7.435389,11.032945,-62.584702,1070.344360,140.937454,48.358944,-186.307343,-124.563179,355.203735,-74.166069,-111.693275,96.631973,222.298141,69.114449,-155.791992,-231.526672,-77.413666,368.459076,439.807617,39.330917,-54.457161,-126.691078,-227.689896,-480.793762,-367.268402,-394.894135,7936.000000,0.000000,-1.000000,,,,0.000000,4.000000,4.000000,4.000000,4.000000,4.000000,4.000000,4.000000,4.000000,4.000000,4.000000,4.000000,4.000000,4.000000,4.000000,4.000000,4.000000,4.000000,4.000000,4.000000,4.000000,4.000000,4.000000,4.000000,4.000000,4.000000,4.000000,4.000000,4.000000,3.000000,4.000000,4.000000,4.000000
1578522428.188209,46.000000,0.000000,-162.153091,-137.582291,-421.576691,-331.064240,65.049828,158.887497,-9.479236,2.816784,-66.624680,1065.684326,127.463181,38.054176,-188.172318,-121.361694,330.233154,-41.271389,-98.248245,129.355850,254.896362,36.737640,-167.431061,-230.782318,-109.643944,359.372681,445.008820,22.881330,-57.479626,-137.333618,-232.590408,-502.877075,-385.875488,-399.114624,7808.000000,0.000000,-1.000000,,,,0.000000,4.000000,4.000000,4.000000,4.000000,4.000000,4.000000,4.000000,4.000000,4.000000,4.000000,4.000000,4.000000,4.000000,4.000000,4.000000,4.000000,4.000000,4.000000,4.000000,4.000000,4.000000,4.000000,4.000000,4.000000,4.000000,4.000000,4.000000,4.000000,3.000000,4.000000,4.000000,4.000000
1578522428.195959,47.000000,0.000000,-161.990936,-136.419067,-430.898712,-336.886993,62.933498,143.856812,-9.469756,-1.801418,-87.070877,1061.028809,95.028030,70.836632,-184.394409,-100.727516,362.723419,-41.742935,-99.175644,98.970093,231.051712,69.521416,-148.289276,-223.884872,-139.790710,326.705597,412.256134,24.396912,-54.345222,-129.503983,-247.229614,-530.579346,-390.617828,-408.459106,7936.000000,0.000000,-1.000000,,,,0.000000,4.000000,4.000000,4.000000,4.000000,4.000000,4.000000,4.000000,4.000000,4.000000,4.000000,4.000000,4.000000,4.000000,4.000000,4.000000,4.000000,4.000000,4.000000,4.000000,4.000000,4.000000,4.000000,4.000000,4.000000,4.000000,4.000000,4.000000,4.000000,3.000000,4.000000,4.000000,4.000000
1578522428.203808,48.000000,0.000000,-162.341766,-136.795471,-425.852417,-336.550110,59.280823,153.969360,-19.716698,-2.825257,-80.829956,1045.608887,127.753517,54.868362,-185.235657,-111.908836,340.309418,-74.008888,-112.922615,68.101891,224.666824,102.272408,-126.089706,-218.019958,-106.830406,358.686584,430.818237,47.962257,-46.598572,-113.989861,-238.264435,-531.074402,-368.175903,-394.204498,8064.000000,0.000000,-1.000000,,,,0.000000,4.000000,4.000000,4.000000,4.000000,4.000000,4.000000,4.000000,4.000000,4.000000,4.000000,4.000000,4.000000,4.000000,4.000000,4.000000,4.000000,4.000000,4.000000,4.000000,4.000000,4.000000,4.000000,4.000000,4.000000,4.000000,4.000000,4.000000,4.000000,3.000000,4.000000,4.000000,4.000000
1578522428.211558,49.000000,0.000000,-161.666611,-136.658676,-405.426575,-331.085358,67.939491,186.635910,-20.209801,-0.771150,-74.082458,1031.742676,160.446274,24.044262,-172.229904,-113.848213,307.661407,-46.755390,-98.963539,100.854301,257.262665,69.862442,-123.399513,-214.725021,-73.903061,391.148407,463.207916,33.042500,-49.116074,-116.952789,-225.205658,-504.902283,-367.294922,-372.271820,8064.000000,0.000000,-1.000000,,,,0.000000,4.000000,4.000000,4.000000,4.000000,4.000000,4.000000,4.000000,4.000000,4.000000,4.000000,4.000000,4.000000,4.000000,4.000000,4.000000,4.000000,4.000000,4.000000,4.000000,4.000000,4.000000,4.000000,4.000000,4.000000,4.000000,4.000000,4.000000,4.000000,3.000000,4.000000,4.000000,4.000000
1578522428.219407,50.000000,0.000000,-161.504944,-137.034836,-384.508331,-314.344025,86.333092,219.269791,8.528358,13.075775,-89.392998,1030.710938,127.978134,56.840729,-146.929474,-80.913849,340.174255,-13.888122,-79.377396,133.573959,272.902832,37.484886,-125.840218,-208.869278,-101.008652,377.423920,448.898560,5.829971,-54.195164,-122.989685,-227.544556,-479.781982,-377.696869,-365.232880,7936.000000,0.000000,-1.000000,,,,0.000000,4.000000,4.000000,4.000000,4.000000,4.000000,4.000000,4.000000,4.000000,4.000000,4.000000,4.000000,4.000000,4.000000,4.000000,4.000000,4.000000,4.000000,4.000000,4.000000,4.000000,4.000000,4.000000,4.000000,4.000000,4.000000,4.000000,4.000000,4.000000,3.000000,4.000000,4.000000,4.000000
1578522428.227157,51.000000,0.000000,-161.856262,-136.897812,-376.431519,-301.209167,91.887779,226.230011,28.519829,22.806290,-98.021553,1007.628967,95.542465,80.886452,-136.013306,-60.320114,372.654602,-7.207567,-75.708275,149.337814,292.629944,70.267914,-114.945145,-201.480911,-119.369179,383.713165,451.013763,22.747217,-51.576866,-114.148743,-226.804199,-464.943237,-359.883270,-361.790741,7936.000000,0.000000,-1.000000,,,,0.000000,4.000000,4.000000,4.000000,4.000000,4.000000,4.000000,4.000000,4.000000,4.000000,4.000000,4.000000,4.000000,4.000000,4.000000,4.000000,4.000000,4.000000,4.000000,4.000000,4.000000,4.000000,4.000000,4.000000,4.000000,4.000000,4.000000,4.000000,4.000000,3.000000,4.000000,4.000000,4.000000
1578522428.235006,52.000000,0.000000,-161.694397,-136.248093,-380.670471,-305.523346,82.052307,199.337112,16.696438,14.578355,-98.949173,983.544434,86.216148,61.831207,-137.415756,-64.362358,350.743500,4.081692,-73.581291,165.085922,307.209106,103.018158,-105.599426,-198.715332,-94.634422,351.021759,425.947357,46.314213,-48.961185,-106.342293,-219.910721,-453.196228,-348.241333,-363.993042,8064.000000,0.000000,-1.000000,,,,0.000000,4.000000,4.000000,4.000000,4.000000,4.000000,4.000000,4.000000,4.000000,4.000000,4.000000,4.000000,4.000000,4.000000,4.000000,4.000000,4.000000,4.000000,4.000000,4.000000,4.000000,4.000000,4.000000,4.000000,4.000000,4.000000,4.000000,4.000000,4.000000,3.000000,4.000000,4.000000,4.000000
1578522428.242756,53.000000,0.000000,-162.558350,-137.137482,-392.597473,-312.910126,73.252304,166.830078,3.346408,8.922750,-92.696373,1002.048035,100.488907,69.974503,-139.329620,-68.913383,380.136353,-1.050595,-82.225655,139.279800,274.594208,90.094627,-113.698959,-200.055084,-81.719276,318.363068,393.213715,32.934566,-50.963505,-107.774406,-218.665176,-448.640472,-373.021301,-383.629059,8064.000000,0.000000,-1.000000,,,,0.000000,4.000000,4.000000,4.000000,4.000000,4.000000,4.000000,4.000000,4.000000,4.000000,4.000000,4.000000,4.000000,4.000000,4.000000,4.000000,4.000000,4.000000,4.000000,4.000000,4.000000,4.000000,4.000000,4.000000,4.000000,4.000000,4.000000,4.000000,4.000000,3.000000,4.000000,4.000000,4.000000
1578522428.250605,54.000000,0.000000,-162.395782,-135.461884,-396.820282,-308.494659,73.179047,150.252991,2.830241,13.016392,-59.783165,1015.404968,133.208939,70.417351,-146.882599,-85.254723,365.910034,-33.357235,-98.040863,119.653351,258.934998,81.799408,-121.790390,-200.880661,-91.381149,350.865204,425.641022,28.799068,-49.374081,-107.153816,-219.472153,-448.191833,-380.340576,-386.322327,7808.000000,0.000000,-1.000000,,,,0.000000,4.000000,4.000000,4.000000,4.000000,4.000000,4.000000,4.000000,4.000000,4.000000,4.000000,4.000000,4.000000,4.000000,4.000000,4.000000,4.000000,4.000000,4.000000,4.000000,4.000000,4.000000,4.000000,4.000000,4.000000,4.000000,4.000000,4.000000,4.000000,3.000000,4.000000,4.000000,4.000000
1578522428.258355,55.000000,0.000000,-162.746216,-126.095650,-378.474731,-291.775909,74.644333,155.230942,0.776129,15.567478,-28.954151,997.466492,138.716751,46.757191,-154.428024,-100.041260,333.236450,-29.734135,-99.481285,141.072159,290.470917,71.974014,-120.642960,-199.654144,-94.879509,383.334869,458.035889,59.539501,-44.196503,-104.995377,-219.252670,-436.974426,-354.319214,-353.115509,7936.000000,0.000000,-1.000000,,,,0.000000,4.000000,4.000000,4.000000,4.000000,4.000000,4.000000,4.000000,4.000000,4.000000,4.000000,4.000000,4.000000,4.000000,4.000000,4.000000,4.000000,4.000000,4.000000,4.000000,4.000000,4.000000,4.000000,4.000000,4.000000,4.000000,4.000000,4.000000,4.000000,3.000000,4.000000,4.000000,4.000000
1578522428.266204,56.000000,0.000000,-161.557831,-117.251610,-364.250092,-278.150787,74.569687,176.101349,-0.250288,23.244219,-45.848274,994.930603,128.321625,59.530945,-153.760773,-92.761734,365.723724,-21.499273,-105.535652,122.469543,257.872772,63.184093,-127.701797,-199.967300,-93.246170,350.643829,425.270172,70.249191,-42.101025,-103.351921,-220.059067,-419.614380,-349.862335,-337.377777,7936.000000,0.000000,-1.000000,,,,0.000000,4.000000,4.000000,4.000000,4.000000,4.000000,4.000000,4.000000,4.000000,4.000000,4.000000,4.000000,4.000000,4.000000,4.000000,4.000000,4.000000,4.000000,4.000000,4.000000,4.000000,4.000000,4.000000,4.000000,4.000000,4.000000,4.000000,4.000000,4.000000,3.000000,4.000000,4.000000,4.000000
1578522428.273954,57.000000,0.000000,-153.703964,-118.159996,-368.501251,-280.436737,78.597679,197.976532,-0.250038,30.913282,-56.058838,994.961304,161.013809,70.753464,-155.658295,-90.617691,385.358002,-53.785465,-116.199348,90.039383,228.384125,66.197830,-135.779221,-201.305801,-94.178566,344.139343,404.844910,57.871250,-42.571743,-101.710106,-222.403107,-415.092194,-361.307343,-349.860901,7936.000000,0.000000,-1.000000,,,,0.000000,4.000000,4.000000,4.000000,4.000000,4.000000,4.000000,4.000000,4.000000,4.000000,4.000000,4.000000,4.000000,4.000000,4.000000,4.000000,4.000000,4.000000,4.000000,4.000000,4.000000,4.000000,4.000000,4.000000,4.000000,4.000000,4.000000,4.000000,4.000000,3.000000,4.000000,4.000000,4.000000
1578522428.281604,58.000000,0.000000,-138.678467,-115.990555,-361.466064,-280.669128,93.903702,209.060608,-1.275429,28.831087,-32.925854,963.197083,166.493820,50.682713,-146.784683,-87.962975,352.664948,-35.270142,-95.570328,122.769859,260.976257,74.849586,-118.207550,-186.232697,-96.135666,376.615723,437.260559,72.685173,-42.529171,-98.531471,-222.693527,-420.830933,-347.612701,-342.331573,8064.000000,0.000000,-1.000000,,,,0.000000,4.000000,4.000000,4.000000,4.000000,4.000000,4.000000,4.000000,4.000000,4.000000,4.000000,4.000000,4.000000,4.000000,4.000000,4.000000,4.000000,4.000000,4.000000,4.000000,4.000000,4.000000,4.000000,4.000000,4.000000,4.000000,4.000000,4.000000,4.000000,3.000000,4.000000,4.000000,4.000000
1578522428.289353,59.000000,0.000000,-120.078247,-103.054047,-338.027679,-257.311523,114.835442,217.569504,17.700205,39.058666,-20.072416,945.310852,134.019638,77.811516,-115.868675,-55.054497,385.132782,-2.414359,-62.654243,155.467606,293.535797,107.595245,-85.268829,-156.815704,-91.936966,364.957031,430.669464,87.484283,-44.025105,-83.561150,-221.958008,-420.410126,-333.931763,-318.912292,8064.000000,0.000000,-1.000000,,,,0.000000,4.000000,4.000000,4.000000,4.000000,4.000000,4.000000,4.000000,4.000000,4.000000,4.000000,4.000000,4.000000,4.000000,4.000000,4.000000,4.000000,4.000000,4.000000,4.000000,4.000000,4.000000,4.000000,4.000000,4.000000,4.000000,4.000000,4.000000,4.000000,3.000000,4.000000,4.000000,4.000000
1578522428.297003,60.000000,0.000000,-101.496628,-94.745865,-325.381958,-237.054230,128.053940,228.121155,49.990196,62.609352,-16.462601,972.057800,166.706131,110.554222,-91.137421,-22.178928,417.568176,8.870106,-50.283897,142.491623,269.139679,140.308167,-63.132278,-138.710159,-67.229645,332.284393,397.931091,71.499359,-40.904156,-64.503227,-222.248871,-419.476868,-345.905518,-313.977997,8064.000000,0.000000,-1.000000,,,,0.000000,4.000000,4.000000,4.000000,4.000000,4.000000,4.000000,4.000000,4.000000,4.000000,4.000000,4.000000,4.000000,4.000000,4.000000,4.000000,4.000000,4.000000,4.000000,4.000000,4.000000,4.000000,4.000000,4.000000,4.000000,4.000000,4.000000,4.000000,4.000000,3.000000,4.000000,4.000000,4.000000
1578522428.304752,61.000000,0.000000,-89.087440,-95.163940,-329.671967,-242.458191,127.413063,211.482788,57.119694,62.033920,-13.882034,996.726807,199.359940,117.110329,-90.533463,-27.284954,420.227539,-23.446457,-51.772076,138.246567,273.485931,121.706322,-61.530685,-139.597092,-37.418827,347.336731,419.071625,73.479149,-35.222225,-68.028465,-223.052261,-441.108673,-354.790375,-318.279419,8064.000000,0.000000,-1.000000,,,,0.000000,4.000000,4.000000,4.000000,4.000000,4.000000,4.000000,4.000000,4.000000,4.000000,4.000000,4.000000,4.000000,4.000000,4.000000,4.000000,4.000000,4.000000,4.000000,4.000000,4.000000,4.000000,4.000000,4.000000,4.000000,4.000000,4.000000,4.000000,4.000000,3.000000,4.000000,4.000000,4.000000
1578522428.312402,62.000000,0.000000,-86.434250,-95.581596,-342.162811,-252.472153,121.644623,178.963608,45.780525,46.587273,-30.791229,989.576233,166.852890,97.506042,-94.032677,-35.462799,391.089355,2.218016,-52.745945,168.877548,305.520142,89.276924,-63.007614,-140.483139,-40.458332,356.732971,436.088470,91.354385,-38.776749,-84.370697,-221.803574,-472.975281,-355.461212,-327.704712,8064.000000,0.000000,-1.000000,,,,0.000000,4.000000,4.000000,4.000000,4.000000,4.000000,4.000000,4.000000,4.000000,4.000000,4.000000,4.000000,4.000000,4.000000,4.000000,4.000000,4.000000,4.000000,4.000000,4.000000,4.000000,4.000000,4.000000,4.000000,4.000000,4.000000,4.000000,4.000000,4.000000,3.000000,4.000000,4.000000,4.000000
1578522428.320152,63.000000,0.000000,-87.373459,-95.486015,-357.205261,-252.219681,117.933235,146.476944,46.247562,46.540684,-37.939926,971.663574,134.378342,97.408539,-93.425819,-25.683744,369.159790,35.036312,-49.103455,184.606110,317.522308,116.879951,-54.226658,-137.265732,-57.340950,380.478821,451.036987,77.416878,-42.327713,-81.722221,-221.581772,-485.322815,-359.721161,-346.351379,8064.000000,0.000000,-1.000000,,,,0.000000,4.000000,4.000000,4.000000,4.000000,4.000000,4.000000,4.000000,4.000000,4.000000,4.000000,4.000000,4.000000,4.000000,4.000000,4.000000,4.000000,4.000000,4.000000,4.000000,4.000000,4.000000,4.000000,4.000000,4.000000,4.000000,4.000000,4.000000,4.000000,3.000000,4.000000,4.000000,4.000000
1578522428.327801,64.000000,0.000000,-87.286079,-94.364891,-353.771118,-251.454636,115.764023,135.048416,48.252598,51.109528,-18.927628,968.127808,167.064484,92.182922,-96.922142,-24.119600,352.380402,17.565376,-42.900505,174.165085,314.640686,144.968201,-46.992947,-136.102829,-47.540020,410.354736,481.355164,62.980484,-32.541798,-68.819984,-220.847366,-475.606720,-355.258850,-343.440918,0.000000,226.000000,-1.000000,,,,0.000000,4.000000,4.000000,4.000000,4.000000,4.000000,4.000000,4.000000,4.000000,4.000000,4.000000,4.000000,4.000000,4.000000,4.000000,4.000000,4.000000,4.000000,4.000000,4.000000,4.000000,4.000000,4.000000,4.000000,4.000000,4.000000,4.000000,4.000000,4.000000,3.000000,4.000000,4.000000,4.000000
1578522428.335551,65.000000,0.000000,-89.250076,-90.680779,-334.442993,-248.639084,117.186714,145.169785,48.717167,56.186623,-17.370237,982.031433,199.717926,93.629204,-98.876495,-29.223684,379.720306,-14.759881,-47.985809,146.811432,287.146545,118.669388,-60.792107,-136.992371,-32.620686,377.636688,456.771271,84.455963,-23.791306,-66.699883,-212.421387,-474.618286,-345.160004,-320.533386,0.000000,174.000000,-1.000000,,,,0.000000,4.000000,4.000000,4.000000,4.000000,4.000000,4.000000,4.000000,4.000000,4.000000,4.000000,4.000000,4.000000,4.000000,4.000000,4.000000,4.000000,4.000000,4.000000,4.000000,4.000000,4.000000,4.000000,4.000000,4.000000,4.000000,4.000000,4.000000,4.000000,3.000000,4.000000,4.000000,4.000000
1578522428.343200,66.000000,0.000000,-84.545441,-88.026001,-323.852142,-240.698135,129.377228,172.716919,58.412037,69.976593,-19.916969,992.331482,222.595139,110.458649,-97.751984,-29.707281,394.212402,-28.591274,-62.296799,114.356934,254.551727,86.243027,-84.321060,-136.855377,-44.382935,357.259064,430.673462,105.909973,-26.844439,-69.197289,-199.388458,-474.656494,-341.225098,-308.930786,0.000000,157.000000,-1.000000,,,,0.000000,4.000000,4.000000,4.000000,4.000000,4.000000,4.000000,4.000000,4.000000,4.000000,4.000000,4.000000,4.000000,4.000000,4.000000,4.000000,4.000000,4.000000,4.000000,4.000000,4.000000,4.000000,4.000000,4.000000,4.000000,4.000000,4.000000,4.000000,4.000000,3.000000,4.000000,4.000000,4.000000
1578522428.350950,67.000000,0.000000,-75.230125,-87.425156,-323.528290,-235.842041,137.965790,205.364716,59.892090,71.957893,-1.948335,972.877625,190.064850,98.553314,-101.756790,-41.472446,361.510498,-37.280632,-69.413986,101.422066,243.527939,66.669601,-93.980324,-137.231339,-62.287270,389.722321,463.063293,97.086113,-27.330414,-67.589630,-193.548050,-460.335693,-337.806976,-307.596222,0.000000,206.000000,-1.000000,,,,0.000000,4.000000,4.000000,4.000000,4.000000,4.000000,4.000000,4.000000,4.000000,4.000000,4.000000,4.000000,4.000000,4.000000,4.000000,4.000000,4.000000,4.000000,4.000000,4.000000,4.000000,4.000000,4.000000,4.000000,4.000000,4.000000,4.000000,4.000000,4.000000,3.000000,4.000000,4.000000,4.000000
1578522428.358600,68.000000,0.000000,-75.154900,-88.876190,-325.768860,-237.657486,132.186798,237.979874,48.037323,55.475681,-12.715617,943.699585,167.310669,69.736816,-101.142220,-55.277126,328.841278,-32.115147,-69.857391,117.218079,266.361328,82.500366,-88.245323,-137.094101,-64.789085,379.076172,460.548950,67.758255,-29.867186,-67.522041,-194.892960,-460.900970,-349.264038,-315.493744,0.000000,221.000000,-1.000000,,,,0.000000,4.000000,4.000000,4.000000,4.000000,4.000000,4.000000,4.000000,4.000000,4.000000,4.000000,4.000000,4.000000,4.000000,4.000000,4.000000,4.000000,4.000000,4.000000,4.000000,4.000000,4.000000,4.000000,4.000000,4.000000,4.000000,4.000000,4.000000,4.000000,3.000000,4.000000,4.000000,4.000000
1578522428.366349,69.000000,0.000000,-78.156670,-92.377052,-334.161041,-241.009567,125.387947,264.408539,52.091850,51.317642,-43.472134,950.448242,180.476700,86.590157,-89.759026,-36.247490,361.332947,0.737482,-60.556767,146.844452,290.197540,114.725555,-77.387848,-133.880096,-58.057629,346.389404,427.780701,45.126396,-37.016808,-67.454521,-194.698059,-482.491364,-373.530151,-332.614166,0.000000,223.000000,-1.000000,,,,0.000000,4.000000,4.000000,4.000000,4.000000,4.000000,4.000000,4.000000,4.000000,4.000000,4.000000,4.000000,4.000000,4.000000,4.000000,4.000000,4.000000,4.000000,4.000000,4.000000,4.000000,4.000000,4.000000,4.000000,4.000000,4.000000,4.000000,4.000000,4.000000,3.000000,4.000000,4.000000,4.000000
1578522428.373999,70.000000,0.000000,-67.822098,-88.694939,-337.929443,-239.742920,126.801025,260.554413,65.885910,62.548374,-44.967121,975.138794,167.988525,116.247154,-81.464134,-9.544578,393.792145,30.480333,-39.470570,169.261703,308.881683,111.021088,-62.951481,-126.053902,-51.332905,378.863525,458.122162,60.978706,-28.261841,-62.771679,-193.990540,-483.547333,-365.464325,-325.614868,0.000000,214.000000,-1.000000,,,,0.000000,4.000000,4.000000,4.000000,4.000000,4.000000,4.000000,4.000000,4.000000,4.000000,4.000000,4.000000,4.000000,4.000000,4.000000,4.000000,4.000000,4.000000,4.000000,4.000000,4.000000,4.000000,4.000000,4.000000,4.000000,4.000000,4.000000,4.000000,4.000000,3.000000,4.000000,4.000000,4.000000
1578522428.381748,71.000000,0.000000,-58.010689,-78.862648,-322.206909,-232.836517,126.674225,231.575897,61.204643,67.101212,-42.870872,973.138000,173.461563,100.233475,-84.459595,-18.765802,361.090637,34.039597,-31.225971,175.246292,325.495880,92.448532,-55.196224,-121.312462,-47.691830,411.305176,490.484558,88.097214,-12.848964,-57.067883,-194.822189,-461.525330,-332.278320,-300.161072,0.000000,190.000000,-1.000000,,,,0.000000,4.000000,4.000000,4.000000,4.000000,4.000000,4.000000,4.000000,4.000000,4.000000,4.000000,4.000000,4.000000,4.000000,4.000000,4.000000,4.000000,4.000000,4.000000,4.000000,4.000000,4.000000,4.000000,4.000000,4.000000,4.000000,4.000000,4.000000,4.000000,3.000000,4.000000,4.000000,4.000000
1578522428.389398,72.000000,0.000000,-59.491138,-77.758148,-310.089844,-227.988297,126.034729,199.036636,52.938309,64.470009,-53.597233,960.882813,182.518875,83.722984,-83.349495,-33.618832,328.421875,36.056839,-35.810131,175.583862,332.862701,112.868904,-56.166668,-121.703972,-46.105675,378.586182,457.686371,77.239883,-15.913037,-55.985172,-194.627380,-453.884308,-329.894775,-303.450653,0.000000,171.000000,-1.000000,,,,0.000000,4.000000,4.000000,4.000000,4.000000,4.000000,4.000000,4.000000,4.000000,4.000000,4.000000,4.000000,4.000000,4.000000,4.000000,4.000000,4.000000,4.000000,4.000000,4.000000,4.000000,4.000000,4.000000,4.000000,4.000000,4.000000,4.000000,4.000000,4.000000,3.000000,4.000000,4.000000,4.000000
1578522428.397248,73.000000,0.000000,-56.354725,-81.270134,-314.395111,-230.324402,127.959976,166.529907,60.577679,64.918358,-48.928249,961.973206,150.028656,106.203362,-71.984093,-19.226238,360.913971,39.610527,-28.082012,170.280075,329.965729,140.448334,-42.777168,-119.018166,-41.957005,361.797333,435.177399,61.265209,-19.999689,-55.929188,-194.945572,-460.097107,-343.411041,-316.993347,0.000000,156.000000,-1.000000,,,,0.000000,4.000000,4.000000,4.000000,4.000000,4.000000,4.000000,4.000000,4.000000,4.000000,4.000000,4.000000,4.000000,4.000000,4.000000,4.000000,4.000000,4.000000,4.000000,4.000000,4.000000,4.000000,4.000000,4.000000,4.000000,4.000000,4.000000,4.000000,4.000000,3.000000,4.000000,4.000000,4.000000
1578522428.404997,74.000000,0.000000,-44.503498,-75.547836,-311.003815,-227.529984,128.857651,155.081314,69.747871,65.879082,-41.187016,965.113831,169.878632,127.122803,-64.732620,-5.360858,393.373566,17.006813,-15.746238,155.750824,330.661407,144.923279,-18.119005,-107.104279,-31.658638,394.256073,467.562744,83.255226,-8.184817,-49.719410,-193.724976,-457.072906,-324.606079,-300.778931,0.000000,193.000000,-1.000000,,,,0.000000,4.000000,4.000000,4.000000,4.000000,4.000000,4.000000,4.000000,4.000000,4.000000,4.000000,4.000000,4.000000,4.000000,4.000000,4.000000,4.000000,4.000000,4.000000,4.000000,4.000000,4.000000,4.000000,4.000000,4.000000,4.000000,4.000000,4.000000,4.000000,3.000000,4.000000,4.000000,4.000000
1578522428.412847,75.000000,0.000000,-39.843609,-68.805618,-291.205627,-208.328094,128.728790,167.746750,71.729408,65.300385,-30.376596,977.482056,202.529266,124.944397,-64.155067,-10.996523,360.672485,-7.625578,-15.730492,147.389938,333.920502,145.291168,-17.588066,-99.817680,-14.703903,426.682312,499.915710,110.351463,0.028496,-43.003025,-186.864594,-450.461975,-299.153259,-280.478149,0.000000,200.000000,-1.000000,,,,0.000000,4.000000,4.000000,4.000000,4.000000,4.000000,4.000000,4.000000,4.000000,4.000000,4.000000,4.000000,4.000000,4.000000,4.000000,4.000000,4.000000,4.000000,4.000000,4.000000,4.000000,4.000000,4.000000,4.000000,4.000000,4.000000,4.000000,4.000000,4.000000,3.000000,4.000000,4.000000,4.000000
1578522428.420596,76.000000,0.000000,-39.803768,-70.275276,-284.247742,-188.632584,129.112885,178.861053,71.144852,65.235085,-6.756477,995.478882,170.019043,121.742531,-64.090912,-13.549629,328.004120,4.176919,-23.407068,141.088715,304.868622,116.940758,-47.314068,-111.512741,-10.586635,424.717163,501.467072,114.343674,-2.535635,-48.088226,-180.011063,-450.524323,-298.341309,-280.197662,0.000000,203.000000,-1.000000,,,,0.000000,4.000000,4.000000,4.000000,4.000000,4.000000,4.000000,4.000000,4.000000,4.000000,4.000000,4.000000,4.000000,4.000000,4.000000,4.000000,4.000000,4.000000,4.000000,4.000000,4.000000,4.000000,4.000000,4.000000,4.000000,4.000000,4.000000,4.000000,4.000000,3.000000,4.000000,4.000000,4.000000
1578522428.428446,77.000000,0.000000,-43.353706,-73.281929,-298.835297,-189.982407,127.958138,202.784760,66.971146,65.169846,-15.980490,984.739868,137.541336,123.159248,-71.206306,-13.536079,360.496643,12.890691,-39.281097,117.870697,272.256073,84.516121,-70.343674,-130.375580,-34.165791,391.984772,468.657898,108.075485,-4.071561,-58.296551,-178.292587,-448.535339,-305.222443,-284.020020,0.000000,180.000000,-1.000000,,,,0.000000,4.000000,4.000000,4.000000,4.000000,4.000000,4.000000,4.000000,4.000000,4.000000,4.000000,4.000000,4.000000,4.000000,4.000000,4.000000,4.000000,4.000000,4.000000,4.000000,4.000000,4.000000,4.000000,4.000000,4.000000,4.000000,4.000000,4.000000,4.000000,3.000000,4.000000,4.000000,4.000000
1578522428.436195,78.000000,0.000000,-52.541122,-75.259926,-303.151855,-196.459091,128.343002,235.402481,60.750328,64.591858,-48.272202,965.806396,170.224304,120.984802,-84.981255,-22.240492,386.289978,-12.250405,-54.113609,103.393852,265.317139,106.482887,-61.042564,-132.296494,-53.105984,359.285095,435.881561,94.634071,-4.067490,-58.238255,-179.139938,-439.881683,-305.430054,-280.659088,0.000000,197.000000,-1.000000,,,,0.000000,4.000000,4.000000,4.000000,4.000000,4.000000,4.000000,4.000000,4.000000,4.000000,4.000000,4.000000,4.000000,4.000000,4.000000,4.000000,4.000000,4.000000,4.000000,4.000000,4.000000,4.000000,4.000000,4.000000,4.000000,4.000000,4.000000,4.000000,4.000000,3.000000,4.000000,4.000000,4.000000
1578522428.444045,79.000000,0.000000,-54.539864,-76.723129,-286.438446,-189.083145,136.932602,265.423492,59.151115,64.014442,-47.198288,973.045715,202.874603,117.786896,-84.896278,-24.782354,363.852417,-14.289436,-46.880009,126.367378,297.872345,139.196915,-39.955879,-123.959068,-37.668262,369.182220,438.522583,80.693283,1.577604,-50.487709,-178.447968,-428.672577,-304.611786,-277.301514,0.000000,224.000000,-1.000000,,,,0.000000,4.000000,4.000000,4.000000,4.000000,4.000000,4.000000,4.000000,4.000000,4.000000,4.000000,4.000000,4.000000,4.000000,4.000000,4.000000,4.000000,4.000000,4.000000,4.000000,4.000000,4.000000,4.000000,4.000000,4.000000,4.000000,4.000000,4.000000,4.000000,3.000000,4.000000,4.000000,4.000000
1578522428.451794,80.000000,0.000000,-46.280193,-76.646408,-284.613525,-189.406891,146.026443,271.311920,64.732994,65.488892,-49.202374,975.149597,170.364029,119.720390,-70.452408,-10.911418,355.796265,18.545366,-27.345951,159.061523,330.394989,113.416695,-37.864643,-120.758186,-19.169056,398.043793,464.750732,76.510025,3.114488,-49.411579,-178.269531,-419.013123,-305.332825,-277.537018,0.000000,221.000000,-1.000000,,,,0.000000,4.000000,4.000000,4.000000,4.000000,4.000000,4.000000,4.000000,4.000000,4.000000,4.000000,4.000000,4.000000,4.000000,4.000000,4.000000,4.000000,4.000000,4.000000,4.000000,4.000000,4.000000,4.000000,4.000000,4.000000,4.000000,4.000000,4.000000,4.000000,3.000000,4.000000,4.000000,4.000000
1578522428.459644,81.000000,0.000000,-43.669811,-77.595398,-300.739166,-199.473892,147.418869,258.220093,73.899025,67.987503,-70.691628,961.866760,150.193665,130.882721,-63.715286,4.484109,381.081482,44.167847,-21.677580,170.697342,328.526123,80.995590,-43.467804,-117.047684,-33.508862,401.235504,462.747528,76.946342,-3.042473,-49.874989,-178.604080,-412.440277,-307.078766,-278.285126,0.000000,190.000000,-1.000000,,,,0.000000,4.000000,4.000000,4.000000,4.000000,4.000000,4.000000,4.000000,4.000000,4.000000,4.000000,4.000000,4.000000,4.000000,4.000000,4.000000,4.000000,4.000000,4.000000,4.000000,4.000000,4.000000,4.000000,4.000000,4.000000,4.000000,4.000000,4.000000,4.000000,4.000000,4.000000,4.000000,4.000000
1578522428.467393,82.000000,0.000000,-45.677425,-75.466522,-293.258942,-187.479553,147.271454,225.654175,75.876411,67.919518,-52.159401,964.494629,182.863983,131.777481,-64.164391,3.966805,377.110657,26.687780,-24.220005,168.475357,331.274506,113.735107,-27.014080,-106.674225,-47.321507,397.757324,459.207855,89.689903,4.140057,-37.004601,-178.425476,-410.489380,-301.643494,-269.801697,0.000000,171.000000,-1.000000,,,,0.000000,4.000000,4.000000,4.000000,4.000000,4.000000,4.000000,4.000000,4.000000,4.000000,4.000000,4.000000,4.000000,4.000000,4.000000,4.000000,4.000000,4.000000,4.000000,4.000000,4.000000,4.000000,4.000000,4.000000,4.000000,4.000000,4.000000,4.000000,4.000000,4.000000,4.000000,4.000000,4.000000
1578522428.475243,83.000000,0.000000,-41.529182,-66.673103,-272.452881,-164.727966,150.201111,193.120834,73.749252,71.954163,-28.004677,971.735229,178.065735,122.927757,-59.484840,0.885915,357.246368,14.866221,-19.580399,166.255600,347.353516,146.441879,-5.448604,-96.311142,-22.658800,394.282654,462.851196,108.574577,19.520533,-21.070160,-178.247040,-410.591705,-286.982880,-261.839600,0.000000,199.000000,-1.000000,,,,0.000000,4.000000,4.000000,4.000000,4.000000,4.000000,4.000000,4.000000,4.000000,4.000000,4.000000,4.000000,4.000000,4.000000,4.000000,4.000000,4.000000,4.000000,4.000000,4.000000,4.000000,4.000000,4.000000,4.000000,4.000000,4.000000,4.000000,4.000000,4.000000,4.000000,4.000000,4.000000,4.000000
1578522428.482992,84.000000,0.000000,-36.872269,-60.965408,-277.821442,-164.563232,150.563721,172.414886,82.906273,82.138618,-52.592056,974.866089,145.579971,140.753540,-53.271511,12.679900,389.709625,32.287251,-13.406973,166.602158,339.826660,113.987747,-17.238028,-92.112267,4.543345,372.349915,444.952454,100.260872,18.475370,-25.664474,-178.581619,-412.232391,-285.670258,-263.629059,0.000000,214.000000,-1.000000,,,,0.000000,4.000000,4.000000,4.000000,4.000000,4.000000,4.000000,4.000000,4.000000,4.000000,4.000000,4.000000,4.000000,4.000000,4.000000,4.000000,4.000000,4.000000,4.000000,4.000000,4.000000,4.000000,4.000000,4.000000,4.000000,4.000000,4.000000,4.000000,4.000000,4.000000,4.000000,4.000000,4.000000
1578522428.490842,85.000000,0.000000,-36.835396,-64.494186,-289.338501,-175.167908,147.336243,169.165558,87.438751,82.056480,-72.539467,993.891235,153.126709,155.997406,-61.423367,13.692862,405.217346,47.126759,-19.034592,168.486847,312.307343,81.566071,-43.374634,-99.199638,-10.332994,353.003204,430.661346,76.570869,11.277408,-42.049065,-178.915863,-415.409912,-300.769196,-264.391052,0.000000,167.000000,-1.000000,,,,0.000000,4.000000,4.000000,4.000000,4.000000,4.000000,4.000000,4.000000,4.000000,4.000000,4.000000,4.000000,4.000000,4.000000,4.000000,4.000000,4.000000,4.000000,4.000000,4.000000,4.000000,4.000000,4.000000,4.000000,4.000000,4.000000,4.000000,4.000000,4.000000,4.000000,4.000000,4.000000,4.000000
1578522428.498591,86.000000,0.000000,-37.311382,-68.019432,-290.587616,-182.685043,142.060699,175.663055,65.300026,69.153908,-77.082314,1007.769104,178.614609,123.533714,-80.849121,-15.551600,372.504456,23.489889,-34.400173,160.113235,295.584778,114.305016,-49.485107,-113.972237,-36.476505,358.804047,439.461456,71.878914,11.778951,-48.673683,-177.198486,-417.558594,-308.160736,-265.152313,0.000000,216.000000,-1.000000,,,,0.000000,4.000000,4.000000,4.000000,4.000000,4.000000,4.000000,4.000000,4.000000,4.000000,4.000000,4.000000,4.000000,4.000000,4.000000,4.000000,4.000000,4.000000,4.000000,4.000000,4.000000,4.000000,4.000000,4.000000,4.000000,4.000000,4.000000,4.000000,4.000000,4.000000,4.000000,4.000000,4.000000
1578522428.506441,87.000000,0.000000,-37.274071,-72.053978,-301.066254,-198.399796,133.713516,197.025848,45.234730,63.443729,-99.056511,1004.710083,151.256500,91.102493,-93.588791,-38.100151,347.516571,-8.841292,-44.622181,127.645424,269.648163,145.985580,-51.486904,-121.550568,-40.542595,368.701660,445.175842,71.807030,9.203070,-48.625011,-177.021286,-417.653870,-307.852570,-278.220490,0.000000,197.000000,-1.000000,,,,0.000000,4.000000,4.000000,4.000000,4.000000,4.000000,4.000000,4.000000,4.000000,4.000000,4.000000,4.000000,4.000000,4.000000,4.000000,4.000000,4.000000,4.000000,4.000000,4.000000,4.000000,4.000000,4.000000,4.000000,4.000000,4.000000,4.000000,4.000000,4.000000,4.000000,4.000000,4.000000,4.000000
1578522428.514190,88.000000,0.000000,-37.749619,-76.084488,-305.893402,-203.329605,133.066971,228.110886,52.881802,69.534134,-96.906174,1010.372009,138.284729,123.831902,-94.520844,-32.421024,379.989563,-41.140144,-47.141663,101.876755,238.609299,114.557541,-64.255928,-120.916199,-41.014874,368.845764,445.243500,71.222404,14.322071,-49.089207,-174.280167,-415.697754,-308.057526,-287.685852,0.000000,185.000000,-1.000000,,,,0.000000,4.000000,4.000000,4.000000,4.000000,4.000000,4.000000,4.000000,4.000000,4.000000,4.000000,4.000000,4.000000,4.000000,4.000000,4.000000,4.000000,4.000000,4.000000,4.000000,4.000000,4.000000,4.000000,4.000000,4.000000,4.000000,4.000000,4.000000,4.000000,4.000000,4.000000,4.000000,4.000000
1578522428.521840,89.000000,0.000000,-37.711868,-72.931480,-291.741364,-192.869858,143.190323,260.703278,60.008408,71.003059,-82.450294,1004.233459,170.966965,134.990128,-92.887856,-27.773220,365.250580,-8.278491,-46.068882,130.492828,268.114288,89.314781,-69.832703,-120.795280,-45.076420,368.989746,447.875183,76.279388,27.641083,-49.552937,-162.311005,-410.666656,-304.672546,-281.244324,0.000000,174.000000,-1.000000,,,,0.000000,4.000000,4.000000,4.000000,4.000000,4.000000,4.000000,4.000000,4.000000,4.000000,4.000000,4.000000,4.000000,4.000000,4.000000,4.000000,4.000000,4.000000,4.000000,4.000000,4.000000,4.000000,4.000000,4.000000,4.000000,4.000000,4.000000,4.000000,4.000000,4.000000,4.000000,4.000000,4.000000
1578522428.529589,90.000000,0.000000,-37.161335,-69.268806,-294.013702,-194.215454,142.021484,293.263092,53.794552,64.778214,-114.675529,976.562561,189.770355,102.547440,-94.333427,-34.412113,332.577637,24.550301,-44.484348,163.182846,300.666687,92.815208,-66.685944,-120.161667,-42.980064,365.031006,440.247803,64.921059,19.408314,-54.118767,-151.892288,-404.102142,-305.906342,-281.475891,0.000000,177.000000,-1.000000,,,,0.000000,4.000000,4.000000,4.000000,4.000000,4.000000,4.000000,4.000000,4.000000,4.000000,4.000000,4.000000,4.000000,4.000000,4.000000,4.000000,4.000000,4.000000,4.000000,4.000000,4.000000,4.000000,4.000000,4.000000,4.000000,4.000000,4.000000,4.000000,4.000000,4.000000,4.000000,4.000000,4.000000
1578522428.537239,91.000000,0.000000,-38.662636,-71.763641,-308.078674,-204.790466,131.110229,295.021118,49.125374,59.585228,-140.714706,980.201355,157.272888,95.265404,-95.264740,-39.505905,358.398926,11.192417,-49.055248,151.737610,277.289093,115.799316,-68.157722,-122.092789,-49.603748,349.281372,426.987061,44.856136,5.029931,-62.269779,-151.740387,-403.185242,-317.908142,-294.527771,0.000000,198.000000,-1.000000,,,,0.000000,4.000000,4.000000,4.000000,4.000000,4.000000,4.000000,4.000000,4.000000,4.000000,4.000000,4.000000,4.000000,4.000000,4.000000,4.000000,4.000000,4.000000,4.000000,4.000000,4.000000,4.000000,4.000000,4.000000,4.000000,4.000000,4.000000,4.000000,4.000000,4.000000,4.000000,4.000000,4.000000
1578522428.544989,92.000000,0.000000,-35.547050,-69.640594,-303.668030,-204.585678,134.568863,281.392761,54.717274,58.500000,-125.189377,1012.041687,124.807922,120.811165,-90.554092,-39.466400,390.861023,-19.588007,-49.519016,130.560226,244.704102,148.504028,-61.422894,-119.406593,-56.733631,336.624390,421.431854,55.067692,17.332594,-61.181866,-149.537369,-407.910248,-316.051758,-297.310150,0.000000,208.000000,-1.000000,,,,0.000000,4.000000,4.000000,4.000000,4.000000,4.000000,4.000000,4.000000,4.000000,4.000000,4.000000,4.000000,4.000000,4.000000,4.000000,4.000000,4.000000,4.000000,4.000000,4.000000,4.000000,4.000000,4.000000,4.000000,4.000000,4.000000,4.000000,4.000000,4.000000,4.000000,4.000000,4.000000,4.000000
1578522428.552638,93.000000,0.000000,-24.742271,-62.391468,-293.107971,-199.252884,147.767639,271.880585,71.072815,63.056885,-126.602646,1021.286072,129.298508,129.921127,-80.719948,-21.478216,369.957336,10.687992,-27.418215,159.147614,277.279907,163.227325,-43.925575,-102.364105,-38.215359,348.595459,432.292480,72.961342,34.751160,-53.428375,-141.695526,-410.579254,-297.274170,-286.756439,0.000000,149.000000,-1.000000,,,,0.000000,4.000000,4.000000,4.000000,4.000000,4.000000,4.000000,4.000000,4.000000,4.000000,4.000000,4.000000,4.000000,4.000000,4.000000,4.000000,4.000000,4.000000,4.000000,4.000000,3.000000,4.000000,4.000000,4.000000,4.000000,4.000000,4.000000,4.000000,4.000000,4.000000,4.000000,4.000000,4.000000
1578522428.560388,94.000000,0.000000,-18.050863,-59.764973,-292.302032,-195.463882,150.183975,239.301025,89.976097,75.301521,-139.809372,1023.341675,161.989716,144.662994,-77.049484,-1.456738,391.638672,28.626022,-7.903616,172.834625,299.566742,144.602554,-37.214981,-93.543793,-14.587401,374.913544,460.065308,68.272995,33.177944,-48.759563,-138.989731,-408.117401,-288.258942,-278.777374,0.000000,180.000000,-1.000000,,,,0.000000,4.000000,4.000000,4.000000,4.000000,4.000000,4.000000,4.000000,4.000000,4.000000,4.000000,4.000000,4.000000,4.000000,4.000000,4.000000,4.000000,4.000000,4.000000,4.000000,3.000000,4.000000,4.000000,4.000000,4.000000,4.000000,4.000000,4.000000,4.000000,4.000000,4.000000,4.000000,4.000000
1578522428.568038,95.000000,0.000000,-19.058453,-61.243671,-291.496918,-190.653046,146.956863,206.754028,90.398941,83.431351,-129.925980,1033.087524,189.007217,153.236282,-78.510895,-10.686050,412.785492,-3.710296,-17.126482,143.943848,266.959473,138.304108,-42.305973,-102.681023,-15.085635,387.871948,478.579620,59.999592,29.555023,-48.710804,-140.902023,-412.837494,-296.175812,-279.524231,0.000000,220.000000,-1.000000,,,,0.000000,4.000000,4.000000,4.000000,4.000000,4.000000,4.000000,4.000000,4.000000,4.000000,4.000000,4.000000,4.000000,4.000000,4.000000,4.000000,4.000000,4.000000,4.000000,4.000000,3.000000,4.000000,4.000000,4.000000,4.000000,4.000000,4.000000,4.000000,4.000000,4.000000,4.000000,4.000000,4.000000
1578522428.575787,96.000000,0.000000,-19.039394,-61.182426,-290.692596,-187.385468,148.348373,181.931885,79.539314,82.322273,-127.744766,1025.900635,156.510513,138.211258,-76.381104,-25.034338,380.065033,-1.142483,-24.801662,148.415283,273.359192,136.627335,-43.802128,-100.527061,-21.224396,385.432800,477.588196,58.401131,26.961367,-48.662094,-140.248291,-426.783630,-301.520660,-283.860107,8192.000000,0.000000,-1.000000,,,,0.000000,4.000000,4.000000,4.000000,4.000000,4.000000,4.000000,4.000000,4.000000,4.000000,4.000000,4.000000,4.000000,4.000000,4.000000,4.000000,4.000000,4.000000,4.000000,4.000000,3.000000,4.000000,4.000000,4.000000,4.000000,4.000000,4.000000,4.000000,4.000000,4.000000,4.000000,4.000000,4.000000
1578522428.583437,97.000000,0.000000,-15.943432,-60.608425,-287.837799,-182.582687,148.200012,210.980728,77.921310,81.727135,-132.232407,1024.874756,156.354004,140.124329,-73.740616,-14.752894,368.402893,31.679173,-14.520452,172.369431,300.265320,127.772766,-44.271145,-89.144478,-21.203171,390.175568,490.443939,60.906834,25.908764,-47.587791,-139.595230,-430.972229,-294.552490,-282.550598,8448.000000,0.000000,-1.000000,,,,0.000000,4.000000,4.000000,4.000000,4.000000,4.000000,4.000000,4.000000,4.000000,4.000000,4.000000,4.000000,4.000000,4.000000,4.000000,4.000000,4.000000,4.000000,4.000000,4.000000,3.000000,4.000000,4.000000,4.000000,4.000000,4.000000,4.000000,4.000000,4.000000,4.000000,4.000000,4.000000,4.000000
1578522428.591186,98.000000,0.000000,-14.901847,-60.547813,-286.011505,-179.836014,147.539001,243.590256,80.407494,84.722328,-127.997612,1050.516479,189.018158,157.420090,-74.692520,-6.533013,400.855011,16.262877,-12.454649,157.838089,274.324005,144.568069,-44.739697,-93.670723,-25.284533,413.375153,520.722717,67.512596,29.985418,-48.565845,-140.481277,-430.541260,-292.719452,-281.755219,8064.000000,0.000000,-1.000000,,,,0.000000,4.000000,4.000000,4.000000,4.000000,4.000000,4.000000,4.000000,4.000000,4.000000,4.000000,4.000000,4.000000,4.000000,4.000000,4.000000,4.000000,4.000000,4.000000,4.000000,3.000000,4.000000,4.000000,4.000000,4.000000,4.000000,4.000000,4.000000,4.000000,4.000000,4.000000,4.000000,4.000000
1578522428.598836,99.000000,0.000000,-15.399766,-62.538548,-307.263947,-187.348480,148.417099,276.167175,81.352730,85.663246,-139.664490,1055.619873,187.803497,163.416519,-69.489624,-6.526480,419.941345,8.554307,-13.980656,157.680252,266.870209,168.526062,-36.489826,-96.141151,-21.156683,429.372009,531.996887,61.291233,22.775946,-49.030098,-139.827972,-444.469696,-316.016479,-301.473480,8064.000000,0.000000,-1.000000,,,,0.000000,4.000000,4.000000,4.000000,4.000000,4.000000,4.000000,4.000000,4.000000,4.000000,4.000000,4.000000,4.000000,4.000000,4.000000,4.000000,4.000000,4.000000,4.000000,4.000000,3.000000,4.000000,4.000000,4.000000,4.000000,4.000000,4.000000,4.000000,4.000000,4.000000,4.000000,4.000000,4.000000
1578522428.606586,100.000000,0.000000,-15.384366,-67.091393,-328.495148,-195.879074,142.627655,293.839722,78.707275,84.039124,-146.704315,1029.436035,155.308014,167.355667,-65.830383,0.659534,425.675232,41.366264,-12.428214,185.214874,296.346924,156.049850,-33.889236,-90.403984,-8.827834,409.968292,511.977722,60.717121,7.881376,-47.955429,-137.636856,-456.845734,-325.956879,-317.582245,8064.000000,0.000000,-1.000000,,,,0.000000,4.000000,4.000000,4.000000,4.000000,4.000000,4.000000,4.000000,4.000000,4.000000,4.000000,4.000000,4.000000,4.000000,4.000000,4.000000,4.000000,4.000000,4.000000,4.000000,3.000000,4.000000,4.000000,4.000000,4.000000,4.000000,4.000000,4.000000,4.000000,4.000000,4.000000,4.000000,4.000000
1578522428.614235,101.000000,0.000000,-17.933084,-67.537125,-317.910248,-201.324234,136.844009,299.699738,63.756771,81.903801,-127.583244,1016.611755,170.537308,143.085754,-81.149170,-11.648818,392.941864,34.145412,-26.774759,175.798889,286.306976,133.842514,-45.650219,-100.569992,-15.998493,384.430115,488.388824,81.682045,14.540161,-48.933113,-135.960770,-455.363251,-292.810425,-299.315948,8064.000000,0.000000,-1.000000,,,,0.000000,4.000000,4.000000,4.000000,4.000000,4.000000,4.000000,4.000000,4.000000,4.000000,4.000000,4.000000,4.000000,4.000000,4.000000,4.000000,4.000000,4.000000,4.000000,4.000000,3.000000,4.000000,4.000000,4.000000,4.000000,4.000000,4.000000,4.000000,4.000000,4.000000,4.000000,4.000000,4.000000
1578522428.621985,102.000000,0.000000,-19.966433,-65.931129,-303.233337,-206.763931,140.809723,304.528229,53.436604,79.770615,-123.865921,1019.184875,203.187286,110.634972,-93.375717,-37.791016,360.241241,8.470241,-34.440292,160.751297,275.251465,138.836884,-45.091747,-108.674545,-28.290188,396.353394,490.977356,81.600365,30.423058,-49.396999,-135.824799,-452.856598,-274.056061,-279.016632,8064.000000,0.000000,-1.000000,,,,0.000000,4.000000,4.000000,4.000000,4.000000,4.000000,4.000000,4.000000,4.000000,4.000000,4.000000,4.000000,4.000000,4.000000,4.000000,4.000000,4.000000,4.000000,4.000000,4.000000,3.000000,4.000000,4.000000,4.000000,4.000000,4.000000,4.000000,4.000000,4.000000,4.000000,4.000000,4.000000,4.000000
1578522428.629634,103.000000,0.000000,-17.382364,-65.352371,-302.930115,-196.813568,145.797119,293.454498,70.819061,83.793411,-129.383072,1018.678467,211.702057,133.088440,-77.384903,-28.009634,392.701508,34.102795,-13.380212,186.231567,307.283905,160.749329,-27.097937,-93.181259,-17.492666,409.290344,500.742767,67.672607,33.469555,-39.604015,-136.201797,-445.224243,-297.371765,-284.378632,8064.000000,0.000000,-1.000000,,,,0.000000,4.000000,4.000000,4.000000,4.000000,4.000000,4.000000,4.000000,4.000000,4.000000,4.000000,4.000000,4.000000,4.000000,4.000000,4.000000,4.000000,4.000000,4.000000,4.000000,3.000000,4.000000,4.000000,4.000000,4.000000,4.000000,4.000000,4.000000,4.000000,4.000000,4.000000,4.000000,4.000000
1578522428.637484,104.000000,0.000000,-13.262418,-59.645996,-291.345123,-175.591125,147.189789,261.878967,95.363632,91.401924,-105.151131,1023.813660,206.362152,165.775864,-56.794697,0.736324,425.129333,49.966129,-1.571959,191.686371,314.668915,181.614212,-17.840071,-80.267563,-2.090558,385.804138,482.293304,93.245964,38.564293,-27.256718,-136.065598,-425.291840,-295.023102,-282.555817,8064.000000,0.000000,-1.000000,,,,0.000000,4.000000,4.000000,4.000000,4.000000,4.000000,4.000000,4.000000,4.000000,4.000000,4.000000,4.000000,4.000000,4.000000,4.000000,4.000000,4.000000,4.000000,4.000000,4.000000,3.000000,4.000000,4.000000,4.000000,4.000000,4.000000,4.000000,4.000000,4.000000,4.000000,4.000000,4.000000,4.000000
1578522428.645233,105.000000,0.000000,-11.710694,-51.381222,-275.156342,-168.236038,151.145157,234.950439,100.396469,95.413086,-88.635727,1036.123169,184.617325,154.328033,-56.225082,-0.290054,397.524719,22.736675,-9.262695,165.340836,290.251678,176.817215,-18.847872,-81.725761,2.014096,387.469635,475.144348,115.716820,50.833420,-25.691000,-132.339783,-414.610138,-268.574219,-269.965546,8064.000000,0.000000,-1.000000,,,,0.000000,4.000000,4.000000,4.000000,4.000000,4.000000,4.000000,4.000000,4.000000,4.000000,4.000000,4.000000,4.000000,4.000000,4.000000,4.000000,4.000000,4.000000,4.000000,4.000000,3.000000,4.000000,4.000000,4.000000,4.000000,4.000000,4.000000,4.000000,4.000000,4.000000,4.000000,4.000000,4.000000
1578522428.653083,106.000000,0.000000,-9.647701,-49.791378,-273.855560,-170.631912,153.558121,222.920609,97.219154,95.317673,-102.393242,1043.292236,152.125015,140.327560,-55.656036,-3.366687,364.819489,19.637016,-9.253432,159.534470,278.166565,144.332703,-25.495689,-83.695313,0.986441,419.902679,507.489716,92.524178,49.756947,-29.255053,-128.617706,-422.400665,-271.382568,-274.310974,8064.000000,0.000000,-1.000000,,,,0.000000,4.000000,4.000000,4.000000,4.000000,4.000000,4.000000,4.000000,4.000000,4.000000,4.000000,4.000000,4.000000,4.000000,4.000000,4.000000,4.000000,4.000000,4.000000,4.000000,3.000000,4.000000,4.000000,4.000000,4.000000,4.000000,4.000000,4.000000,4.000000,4.000000,4.000000,4.000000,4.000000
1578522428.660832,107.000000,0.000000,-8.612412,-46.664665,-273.581696,-173.025375,153.404556,226.800247,99.173218,95.222351,-107.931877,1035.582275,148.383148,158.648758,-47.395252,9.457192,377.787994,26.796867,-11.295461,157.323654,269.683258,111.880684,-45.983013,-88.227005,-16.963263,418.457123,510.059174,75.508575,42.014881,-30.251438,-129.514725,-426.593658,-279.316315,-271.985382,8192.000000,0.000000,-1.000000,,,,0.000000,4.000000,4.000000,4.000000,4.000000,4.000000,4.000000,4.000000,4.000000,4.000000,4.000000,4.000000,4.000000,4.000000,4.000000,4.000000,4.000000,4.000000,4.000000,4.000000,3.000000,4.000000,4.000000,4.000000,4.000000,4.000000,4.000000,4.000000,4.000000,4.000000,4.000000,4.000000,4.000000
1578522428.668682,108.000000,0.000000,-8.090980,-36.874409,-265.102997,-171.826706,160.943466,249.137558,100.612503,95.127129,-103.208557,1024.290283,180.542450,145.669601,-47.860680,2.268248,345.102509,3.693146,-18.463654,143.832993,266.849487,144.589310,-49.526775,-89.677238,-42.074505,385.730988,477.241394,81.586914,44.536968,-29.195545,-126.821114,-406.679871,-264.678040,-251.713394,8192.000000,0.000000,-1.000000,,,,0.000000,4.000000,4.000000,4.000000,4.000000,4.000000,4.000000,4.000000,4.000000,4.000000,4.000000,4.000000,4.000000,4.000000,4.000000,4.000000,4.000000,4.000000,4.000000,4.000000,3.000000,4.000000,4.000000,4.000000,4.000000,4.000000,4.000000,4.000000,4.000000,4.000000,4.000000,4.000000,4.000000
1578522428.676431,109.000000,0.000000,-6.031607,-32.734970,-262.273773,-158.321548,170.526108,271.965332,98.973427,97.083290,-97.977142,1031.471069,189.592682,129.113678,-49.351280,-7.477610,329.372803,9.843300,-8.188779,155.996857,281.454437,177.265244,-20.759300,-81.382431,-31.263199,390.986267,475.738525,86.120712,50.646278,-25.576607,-116.950699,-376.529602,-258.772339,-253.512970,8064.000000,0.000000,-1.000000,,,,0.000000,4.000000,4.000000,4.000000,4.000000,4.000000,4.000000,4.000000,4.000000,4.000000,4.000000,4.000000,4.000000,4.000000,4.000000,4.000000,4.000000,4.000000,4.000000,4.000000,3.000000,4.000000,4.000000,4.000000,4.000000,4.000000,4.000000,4.000000,4.000000,4.000000,4.000000,4.000000,4.000000
1578522428.684281,110.000000,0.000000,-4.487113,-36.804802,-271.242279,-154.573486,170.868408,290.154907,98.361633,100.575951,-92.238144,1043.772949,202.223602,161.805069,-39.558338,16.119612,361.863953,42.653969,7.204025,186.097275,296.044769,151.959763,-6.892387,-79.762589,1.075756,423.415802,508.083313,96.803825,50.082809,-22.986927,-111.192726,-363.332550,-268.257141,-273.259460,8192.000000,0.000000,-1.000000,,,,0.000000,4.000000,4.000000,4.000000,4.000000,4.000000,4.000000,4.000000,4.000000,4.000000,4.000000,4.000000,4.000000,4.000000,4.000000,4.000000,4.000000,4.000000,4.000000,4.000000,3.000000,4.000000,4.000000,4.000000,4.000000,4.000000,4.000000,4.000000,4.000000,4.000000,4.000000,4.000000,4.000000
1578522428.692030,111.000000,0.000000,-4.995447,-38.819279,-280.201813,-175.957382,167.107788,319.095520,97.750450,100.988190,-105.992058,1029.908691,234.841888,181.643265,-31.826471,33.539391,394.322601,61.585674,10.273745,195.141937,316.261536,158.474472,-6.885495,-81.221291,2.613142,431.710327,512.190613,102.860870,50.545547,-23.476761,-113.132813,-361.430756,-270.552979,-267.857971,8192.000000,0.000000,-1.000000,,,,0.000000,4.000000,4.000000,4.000000,4.000000,4.000000,4.000000,4.000000,4.000000,4.000000,4.000000,4.000000,4.000000,4.000000,4.000000,4.000000,4.000000,4.000000,4.000000,4.000000,3.000000,4.000000,4.000000,4.000000,4.000000,4.000000,4.000000,4.000000,4.000000,4.000000,4.000000,4.000000,4.000000
1578522428.699880,112.000000,0.000000,-2.939169,-38.267639,-275.306213,-183.473724,166.427856,336.725159,95.601418,98.323105,-129.475815,1009.391541,227.940384,158.897522,-35.897209,20.172516,361.620575,31.267677,10.263471,191.357056,334.406830,191.136505,10.557288,-76.524681,0.046426,399.996552,479.370728,82.758003,55.110390,-20.889181,-112.506859,-348.248810,-267.205505,-249.641403,8192.000000,0.000000,-1.000000,,,,0.000000,4.000000,4.000000,4.000000,4.000000,4.000000,4.000000,4.000000,4.000000,4.000000,4.000000,4.000000,4.000000,4.000000,4.000000,4.000000,4.000000,4.000000,4.000000,4.000000,3.000000,4.000000,4.000000,4.000000,4.000000,4.000000,4.000000,4.000000,4.000000,4.000000,4.000000,4.000000,4.000000
1578522428.707629,113.000000,0.000000,-0.372128,-38.229370,-263.236053,-163.290253,167.799896,314.337158,87.813515,97.711960,-128.320694,1007.356506,195.404739,141.815552,-49.707466,2.203626,328.951263,16.364616,-0.516024,182.960571,308.944214,158.637680,-1.760961,-90.807129,19.533558,367.288879,446.583649,59.598324,50.439892,-28.560600,-112.394356,-336.618530,-267.963959,-251.955872,8064.000000,0.000000,-1.000000,,,,0.000000,4.000000,4.000000,4.000000,4.000000,4.000000,4.000000,4.000000,4.000000,4.000000,4.000000,4.000000,4.000000,4.000000,4.000000,4.000000,4.000000,4.000000,4.000000,4.000000,3.000000,4.000000,4.000000,4.000000,4.000000,4.000000,4.000000,4.000000,4.000000,4.000000,4.000000,4.000000,4.000000
1578522428.715479,114.000000,0.000000,-2.935858,-39.729603,-259.383057,-161.588501,166.606461,281.715118,72.341080,98.127068,-121.012886,1004.810730,179.824722,121.160912,-71.196220,-22.413961,296.314636,11.732866,-28.720636,156.110947,276.327576,126.171356,-34.066891,-119.434273,0.539666,351.536987,426.137085,52.359238,40.133041,-54.173065,-120.999908,-336.281921,-269.234436,-257.857758,8192.000000,0.000000,-1.000000,,,,0.000000,4.000000,4.000000,4.000000,4.000000,4.000000,4.000000,4.000000,4.000000,4.000000,4.000000,4.000000,4.000000,4.000000,4.000000,4.000000,4.000000,4.000000,4.000000,4.000000,3.000000,4.000000,4.000000,4.000000,4.000000,4.000000,4.000000,4.000000,4.000000,4.000000,4.000000,4.000000,4.000000
1578522428.723229,115.000000,0.000000,-4.984204,-42.253975,-260.662140,-164.503830,161.824463,252.715454,65.602074,97.516121,-121.917511,1002.780273,212.465408,99.501289,-81.894257,-41.878727,263.710602,-18.535276,-38.435505,124.159958,258.615356,131.686203,-48.391800,-121.366119,-31.768566,380.929016,445.710938,61.537651,39.067268,-62.324020,-128.058395,-336.458435,-266.913940,-248.881958,8192.000000,0.000000,-1.000000,,,,0.000000,4.000000,4.000000,4.000000,4.000000,4.000000,4.000000,4.000000,4.000000,4.000000,4.000000,4.000000,4.000000,4.000000,4.000000,4.000000,4.000000,4.000000,4.000000,4.000000,3.000000,4.000000,4.000000,4.000000,4.000000,4.000000,4.000000,4.000000,4.000000,4.000000,4.000000,4.000000,4.000000
1578522428.731078,116.000000,0.000000,-2.415118,-42.724541,-259.375854,-137.159851,158.585709,229.385818,80.921089,97.931419,-108.975082,1022.803101,231.227310,132.222305,-66.427742,-17.221464,296.267426,-28.773151,-15.320147,127.112724,278.356720,164.375031,-15.522896,-101.244759,-30.711157,387.214752,450.906250,82.501755,42.105125,-40.723236,-125.366234,-337.147614,-263.570099,-240.940765,8192.000000,0.000000,-1.000000,,,,0.000000,4.000000,4.000000,4.000000,4.000000,4.000000,4.000000,4.000000,4.000000,4.000000,4.000000,4.000000,4.000000,4.000000,4.000000,4.000000,4.000000,4.000000,4.000000,4.000000,3.000000,4.000000,4.000000,4.000000,4.000000,4.000000,4.000000,4.000000,4.000000,4.000000,4.000000,4.000000,4.000000
1578522428.738828,117.000000,0.000000,-1.387061,-42.168999,-259.116455,-126.253456,158.427124,212.746170,96.224785,100.397591,-98.096878,1032.549561,224.329422,164.910599,-48.925419,15.616270,328.791656,4.076134,2.131071,159.806122,310.898895,165.749115,1.415704,-93.964027,2.140068,361.186523,424.814331,93.188484,41.550198,-29.400459,-124.215225,-345.015594,-265.870636,-244.802383,8192.000000,0.000000,-1.000000,,,,0.000000,4.000000,4.000000,4.000000,4.000000,4.000000,4.000000,4.000000,4.000000,4.000000,4.000000,4.000000,4.000000,4.000000,4.000000,4.000000,4.000000,4.000000,4.000000,4.000000,3.000000,4.000000,4.000000,4.000000,4.000000,4.000000,4.000000,4.000000,4.000000,4.000000,4.000000,4.000000,4.000000
1578522428.746477,118.000000,0.000000,-0.872854,-42.639648,-259.882996,-149.204117,157.755875,219.200089,89.974709,100.297195,-104.152626,1008.440063,222.053802,140.130295,-48.363674,8.933987,296.155182,36.892570,2.128940,185.800171,329.049530,143.532089,-2.175455,-97.972626,8.291774,357.235596,423.363861,94.633759,46.124035,-33.986443,-126.655113,-347.747528,-267.656036,-244.044769,8064.000000,0.000000,-1.000000,,,,0.000000,4.000000,4.000000,4.000000,4.000000,4.000000,4.000000,4.000000,4.000000,4.000000,4.000000,4.000000,4.000000,4.000000,4.000000,4.000000,4.000000,4.000000,4.000000,4.000000,3.000000,4.000000,4.000000,4.000000,4.000000,4.000000,4.000000,4.000000,4.000000,4.000000,4.000000,4.000000,4.000000
1578522428.754227,119.000000,0.000000,5.794686,-42.597008,-253.469254,-146.490814,157.598129,251.801407,83.218071,100.709717,-105.586937,993.072632,189.524063,118.451706,-48.315311,-5.946742,263.551331,22.496704,0.075529,167.152832,307.694824,172.106506,5.006208,-95.823372,-8.126774,348.673218,422.940491,93.000656,49.154831,-32.926815,-125.502815,-340.220276,-263.798645,-236.621231,8192.000000,0.000000,-1.000000,,,,0.000000,4.000000,4.000000,4.000000,4.000000,4.000000,4.000000,4.000000,4.000000,4.000000,4.000000,4.000000,4.000000,4.000000,4.000000,4.000000,4.000000,4.000000,4.000000,4.000000,3.000000,4.000000,4.000000,4.000000,4.000000,4.000000,4.000000,4.000000,4.000000,4.000000,4.000000,4.000000,4.000000
1578522428.761876,120.000000,0.000000,10.917096,-42.041592,-248.087585,-132.498169,160.517456,284.370117,89.288696,101.634651,-114.712120,1004.900085,157.026840,141.923004,-45.190071,-1.838231,296.108307,-9.833485,-7.616854,138.267731,275.079437,153.472855,-7.819311,-93.676262,1.624942,325.247620,397.389343,69.317917,41.926189,-38.022095,-122.813210,-340.392883,-268.150238,-240.487183,8064.000000,0.000000,-1.000000,,,,0.000000,4.000000,4.000000,4.000000,4.000000,4.000000,4.000000,4.000000,4.000000,4.000000,4.000000,4.000000,4.000000,4.000000,4.000000,4.000000,4.000000,4.000000,4.000000,4.000000,3.000000,4.000000,4.000000,4.000000,4.000000,4.000000,4.000000,4.000000,4.000000,4.000000,4.000000,4.000000,4.000000
1578522428.769626,121.000000,0.000000,7.829256,-42.512371,-249.377960,-153.391312,159.844116,290.752411,87.148125,98.456093,-131.520477,1009.023376,176.356995,137.165695,-55.401291,-10.041521,296.837830,-23.669806,-24.532314,129.924332,254.804367,121.011696,-36.016621,-96.146690,-2.992067,356.717255,422.632996,54.889622,39.320160,-50.291763,-122.690399,-354.411469,-274.035919,-246.400528,8064.000000,0.000000,-1.000000,,,,0.000000,4.000000,4.000000,4.000000,4.000000,4.000000,4.000000,4.000000,4.000000,4.000000,4.000000,4.000000,4.000000,4.000000,4.000000,4.000000,4.000000,4.000000,4.000000,4.000000,3.000000,4.000000,4.000000,4.000000,4.000000,4.000000,4.000000,4.000000,4.000000,4.000000,4.000000,4.000000,4.000000
1578522428.777276,122.000000,0.000000,4.744503,-41.957039,-242.461914,-158.366135,159.171448,276.102692,76.804565,102.460205,-119.081268,998.783630,209.001144,108.310577,-67.140762,-23.364813,264.233307,-14.415366,-29.123167,131.845688,255.575211,138.326584,-31.878040,-93.486443,-28.630100,389.181061,455.030853,84.578323,47.485970,-42.036346,-120.516426,-366.877563,-265.556763,-233.846436,8064.000000,0.000000,-1.000000,,,,0.000000,4.000000,4.000000,4.000000,4.000000,4.000000,4.000000,4.000000,4.000000,4.000000,4.000000,4.000000,4.000000,4.000000,4.000000,4.000000,4.000000,4.000000,4.000000,4.000000,3.000000,4.000000,4.000000,4.000000,4.000000,4.000000,4.000000,4.000000,4.000000,4.000000,4.000000,4.000000,4.000000
1578522428.785025,123.000000,0.000000,7.816682,-37.812515,-228.886124,-126.412888,166.704590,283.518890,81.855972,118.255180,-106.654495,997.272034,223.151123,121.535599,-62.458237,-8.469653,274.225464,-2.606079,-15.247890,139.918961,283.011932,155.111328,-9.282059,-83.649368,-23.986086,369.304688,449.447632,101.929642,51.541046,-23.532770,-118.344627,-369.074799,-256.573242,-217.715164,8192.000000,0.000000,-1.000000,,,,0.000000,4.000000,4.000000,4.000000,4.000000,4.000000,4.000000,4.000000,4.000000,4.000000,4.000000,4.000000,4.000000,4.000000,4.000000,4.000000,4.000000,4.000000,4.000000,4.000000,3.000000,4.000000,4.000000,4.000000,4.000000,4.000000,4.000000,4.000000,4.000000,4.000000,4.000000,4.000000,4.000000
1578522428.792675,124.000000,0.000000,12.937071,-34.697781,-223.529022,-124.235199,174.230194,285.286652,90.492065,124.290771,-130.137589,996.787537,190.620285,137.824326,-58.293217,3.333688,306.771759,0.986270,-3.950590,147.471359,300.164825,137.520325,-3.118931,-79.975975,0.653285,345.858459,422.331512,88.494377,56.617710,-21.970776,-119.251923,-365.115967,-253.752579,-213.907700,8192.000000,0.000000,-1.000000,,,,0.000000,4.000000,4.000000,4.000000,4.000000,4.000000,4.000000,4.000000,4.000000,4.000000,4.000000,4.000000,4.000000,4.000000,4.000000,4.000000,4.000000,4.000000,4.000000,4.000000,3.000000,4.000000,4.000000,4.000000,4.000000,4.000000,4.000000,4.000000,4.000000,4.000000,4.000000,4.000000,4.000000
1578522428.800424,125.000000,0.000000,13.949775,-34.663082,-224.331146,-141.034042,172.517502,252.693680,82.196442,112.371605,-134.622833,983.483093,185.301453,116.660858,-65.414406,-11.028620,274.157288,6.626310,-7.023563,145.785431,280.890289,148.152039,-5.679914,-85.024200,6.806478,363.974152,438.319427,98.149475,65.279045,-26.564190,-118.107033,-368.340607,-243.755234,-212.668152,8064.000000,0.000000,-1.000000,,,,0.000000,4.000000,4.000000,4.000000,4.000000,4.000000,4.000000,4.000000,4.000000,4.000000,4.000000,4.000000,4.000000,4.000000,4.000000,4.000000,4.000000,4.000000,4.000000,4.000000,3.000000,4.000000,4.000000,4.000000,4.000000,4.000000,4.000000,4.000000,4.000000,4.000000,4.000000,4.000000,4.000000
1578522428.808074,126.000000,0.000000,11.884542,-33.602779,-221.542709,-126.534027,170.293701,225.774307,80.062965,111.233597,-105.257439,979.935486,174.859741,117.057014,-61.759251,-10.504770,258.498535,12.773530,-8.555000,148.203735,282.660706,172.619263,-5.161414,-88.528923,4.748389,372.328125,458.393951,107.794914,55.470173,-27.050446,-115.424820,-383.869690,-245.562759,-212.455490,8064.000000,0.000000,-1.000000,,,,0.000000,4.000000,4.000000,4.000000,4.000000,4.000000,4.000000,4.000000,4.000000,4.000000,4.000000,4.000000,4.000000,4.000000,4.000000,4.000000,4.000000,4.000000,4.000000,4.000000,3.000000,4.000000,4.000000,4.000000,4.000000,4.000000,4.000000,4.000000,4.000000,4.000000,4.000000,4.000000,4.000000
1578522428.815824,127.000000,0.000000,15.462402,-31.517895,-220.295517,-112.048523,178.328537,241.958801,105.111107,130.096725,-111.818848,992.288879,179.300262,149.760468,-38.107750,21.813427,291.060547,23.529987,3.248426,162.927338,313.660095,180.138962,-2.592150,-86.901932,0.641076,380.160919,473.320160,85.635841,38.491627,-30.100319,-116.847862,-392.716583,-264.804382,-219.935333,8192.000000,0.000000,-1.000000,,,,0.000000,4.000000,4.000000,4.000000,4.000000,4.000000,4.000000,4.000000,4.000000,4.000000,4.000000,4.000000,4.000000,4.000000,4.000000,4.000000,4.000000,4.000000,4.000000,4.000000,3.000000,4.000000,4.000000,4.000000,4.000000,4.000000,4.000000,4.000000,4.000000,4.000000,4.000000,4.000000,4.000000
1578522428.823473,0.000000,0.000000,22.626427,-29.947914,-221.100876,-124.756981,186.868149,258.639923,131.159836,134.582001,-144.014725,990.270935,211.941483,174.226089,-24.736307,39.227512,323.589996,45.044918,11.450306,170.456711,313.346436,193.804977,1.000186,-86.815025,-3.462129,394.652557,486.692993,77.857895,45.119801,-32.634319,-118.782295,-382.580292,-259.924194,-219.715408,0.000000,192.000000,-1.000000,,,,0.000000,4.000000,4.000000,4.000000,4.000000,4.000000,4.000000,4.000000,4.000000,4.000000,3.000000,4.000000,4.000000,4.000000,4.000000,4.000000,4.000000,4.000000,4.000000,4.000000,3.000000,4.000000,4.000000,4.000000,4.000000,4.000000,4.000000,4.000000,4.000000,4.000000,4.000000,4.000000,4.000000
1578522428.831223,1.000000,0.000000,22.603800,-30.943607,-219.854126,-132.324539,176.937698,263.509491,120.259453,118.037170,-151.050201,970.306335,191.216721,154.051865,-33.429520,20.726744,290.958710,47.051155,3.746548,161.055481,293.545898,190.021423,-4.129019,-88.779495,8.849026,368.616882,463.129395,79.318497,50.202888,-33.627327,-118.150688,-373.992584,-243.254013,-211.803375,0.000000,134.000000,-1.000000,,,,0.000000,4.000000,4.000000,4.000000,4.000000,4.000000,4.000000,4.000000,4.000000,4.000000,3.000000,4.000000,4.000000,4.000000,4.000000,4.000000,4.000000,4.000000,4.000000,4.000000,3.000000,4.000000,4.000000,4.000000,4.000000,4.000000,4.000000,4.000000,4.000000,4.000000,4.000000,4.000000,4.000000
1578522428.838872,2.000000,0.000000,18.991453,-36.040871,-222.198380,-130.140930,162.401779,277.092133,90.395599,105.611435,-148.847870,956.002686,158.717804,121.590126,-44.165321,-0.832444,258.360046,18.798977,-7.026429,146.535461,288.636963,158.549347,-6.688993,-91.767639,10.891459,336.453400,437.025238,60.264820,36.306530,-33.593700,-118.545357,-377.721161,-253.779984,-212.617218,0.000000,139.000000,-1.000000,,,,0.000000,4.000000,4.000000,4.000000,4.000000,4.000000,3.000000,4.000000,4.000000,4.000000,3.000000,4.000000,4.000000,4.000000,4.000000,4.000000,4.000000,4.000000,4.000000,4.000000,3.000000,4.000000,4.000000,4.000000,4.000000,4.000000,4.000000,4.000000,4.000000,4.000000,4.000000,4.000000,4.000000
1578522428.846622,3.000000,0.000000,19.485281,-38.056110,-226.591568,-131.549255,168.906052,287.071442,82.100075,106.018646,-168.186188,955.046692,183.687302,111.212128,-43.095516,-4.421355,271.435028,20.831459,-8.557864,144.337631,279.630371,164.031830,5.112568,-89.624588,-5.529689,348.937439,450.947174,65.332764,40.885609,-26.380619,-118.426811,-379.394714,-254.039032,-218.045624,0.000000,209.000000,-1.000000,,,,0.000000,4.000000,4.000000,4.000000,4.000000,4.000000,3.000000,4.000000,4.000000,4.000000,3.000000,4.000000,4.000000,4.000000,4.000000,4.000000,4.000000,4.000000,4.000000,4.000000,3.000000,4.000000,4.000000,4.000000,4.000000,4.000000,4.000000,4.000000,4.000000,4.000000,4.000000,4.000000,4.000000
1578522428.854272,4.000000,0.000000,19.465797,-31.351389,-223.288040,-126.289497,183.096115,285.758728,95.351311,110.528015,-172.633392,965.373718,216.324127,126.485527,-41.513958,-0.827190,288.086670,47.477295,-7.010845,151.885605,278.325104,186.431900,10.235661,-85.945221,4.219430,374.742340,469.983398,88.344353,61.870365,-22.251675,-116.257103,-376.964020,-227.118317,-215.776291,0.000000,194.000000,-1.000000,,,,0.000000,4.000000,4.000000,4.000000,4.000000,4.000000,3.000000,4.000000,4.000000,4.000000,3.000000,4.000000,4.000000,4.000000,4.000000,4.000000,4.000000,4.000000,4.000000,4.000000,3.000000,4.000000,4.000000,4.000000,4.000000,4.000000,4.000000,4.000000,4.000000,4.000000,4.000000,4.000000,4.000000
1578522428.862121,5.000000,0.000000,18.933510,-26.704653,-219.987839,-115.393974,185.477127,283.421692,100.384163,118.622612,-150.409470,973.639099,210.979599,138.666733,-44.549366,-1.852004,282.670380,37.173409,-10.080757,154.297821,305.739105,158.040329,-5.159191,-90.987480,21.138288,405.136841,487.462158,83.640625,55.654648,-32.485832,-116.653671,-379.664001,-226.378387,-212.483597,0.000000,198.000000,-1.000000,,,,0.000000,4.000000,4.000000,4.000000,4.000000,4.000000,3.000000,4.000000,4.000000,4.000000,3.000000,4.000000,4.000000,4.000000,4.000000,4.000000,4.000000,4.000000,4.000000,4.000000,3.000000,4.000000,4.000000,4.000000,4.000000,4.000000,4.000000,4.000000,4.000000,4.000000,4.000000,4.000000,4.000000
1578522428.869871,6.000000,0.000000,34.812012,-29.754869,-225.921692,-114.765762,179.137802,270.317749,92.591469,119.529633,-144.105225,965.485962,213.332718,136.476791,-44.504818,-2.362972,280.336426,32.008030,-9.557856,156.194809,317.741058,147.625885,-14.384801,-99.101624,-0.934133,422.680420,500.308014,75.351852,44.316940,-36.043091,-118.075478,-384.925354,-247.690460,-220.989059,0.000000,215.000000,-1.000000,,,,0.000000,4.000000,4.000000,4.000000,4.000000,4.000000,3.000000,4.000000,4.000000,4.000000,3.000000,4.000000,4.000000,4.000000,4.000000,4.000000,4.000000,4.000000,4.000000,4.000000,3.000000,4.000000,4.000000,4.000000,4.000000,4.000000,4.000000,4.000000,4.000000,4.000000,4.000000,4.000000,4.000000
1578522428.877720,7.000000,0.000000,56.828484,-31.776398,-235.439362,-124.394585,166.138153,248.508972,84.293755,107.102409,-163.448303,958.879456,205.939896,136.340302,-42.921852,-0.822148,291.850952,64.796532,-3.907273,165.782211,299.474579,180.298767,-10.780672,-97.464058,-13.240891,389.950043,467.500000,65.532913,51.964931,-30.366022,-117.444580,-386.078888,-253.083801,-240.255249,0.000000,212.000000,-1.000000,,,,0.000000,4.000000,4.000000,4.000000,4.000000,4.000000,3.000000,4.000000,4.000000,4.000000,3.000000,4.000000,4.000000,4.000000,4.000000,4.000000,4.000000,4.000000,4.000000,4.000000,3.000000,4.000000,4.000000,4.000000,4.000000,4.000000,4.000000,4.000000,4.000000,4.000000,4.000000,4.000000,4.000000
1578522428.885470,8.000000,0.000000,60.874218,-30.718981,-248.537262,-138.629166,152.125854,241.593796,76.004333,98.277359,-175.592545,970.228271,222.657028,134.152679,-51.596878,-2.359787,297.712952,64.218918,-11.595673,163.052322,284.303314,161.144119,-17.436558,-101.469154,7.797991,357.252411,434.724823,43.416096,51.912968,-38.027966,-117.839958,-385.692810,-258.984558,-257.450897,0.000000,192.000000,-1.000000,,,,0.000000,4.000000,4.000000,4.000000,4.000000,4.000000,3.000000,4.000000,4.000000,4.000000,3.000000,4.000000,4.000000,4.000000,4.000000,4.000000,4.000000,4.000000,4.000000,4.000000,3.000000,4.000000,4.000000,4.000000,4.000000,4.000000,4.000000,4.000000,4.000000,4.000000,4.000000,4.000000,4.000000
1578522428.893319,9.000000,0.000000,53.633858,-30.688261,-256.493835,-143.105927,152.486542,243.916306,71.825760,101.768822,-156.442581,974.386230,255.254883,124.274940,-64.878616,-6.459991,290.235748,31.847006,-25.430231,135.709778,273.762604,128.675278,-24.598608,-113.162560,1.123527,389.715668,462.495239,72.603447,50.835415,-44.656601,-118.747757,-384.281464,-255.648651,-251.039597,0.000000,180.000000,-1.000000,,,,0.000000,4.000000,4.000000,4.000000,4.000000,4.000000,3.000000,4.000000,4.000000,4.000000,3.000000,4.000000,4.000000,4.000000,4.000000,4.000000,4.000000,4.000000,4.000000,4.000000,3.000000,4.000000,4.000000,4.000000,4.000000,4.000000,4.000000,4.000000,4.000000,4.000000,4.000000,4.000000,4.000000
1578522428.901069,10.000000,0.000000,52.554581,-31.170393,-245.468124,-130.655121,162.590469,250.851883,82.523170,110.897827,-125.004097,969.822083,222.691940,132.355804,-65.839378,-2.350967,293.535278,19.507465,-18.738134,115.061249,265.283722,161.367111,-6.625292,-104.331451,-16.826315,422.146454,494.853241,105.351357,75.399963,-24.611946,-108.372597,-385.435669,-222.572495,-225.147537,0.000000,192.000000,-1.000000,,,,0.000000,4.000000,4.000000,4.000000,4.000000,4.000000,3.000000,4.000000,4.000000,4.000000,3.000000,4.000000,4.000000,4.000000,4.000000,4.000000,4.000000,4.000000,4.000000,4.000000,3.000000,4.000000,4.000000,4.000000,4.000000,4.000000,4.000000,4.000000,4.000000,4.000000,4.000000,4.000000,4.000000
1578522428.908918,11.000000,0.000000,55.066132,-30.626402,-226.761124,-120.268059,165.504807,274.190765,98.850899,117.966415,-123.853447,972.442017,190.161560,154.274719,-53.978664,7.394973,311.190460,50.257191,-1.283499,133.407730,279.890228,194.026260,15.432615,-82.175835,7.293076,417.621765,491.794281,95.502419,89.170715,-5.100155,-99.546280,-385.563049,-206.965302,-211.076233,0.000000,206.000000,-1.000000,,,,0.000000,4.000000,4.000000,4.000000,4.000000,4.000000,3.000000,4.000000,4.000000,4.000000,3.000000,4.000000,4.000000,4.000000,4.000000,4.000000,4.000000,4.000000,4.000000,4.000000,3.000000,4.000000,4.000000,4.000000,4.000000,4.000000,4.000000,4.000000,4.000000,4.000000,4.000000,4.000000,4.000000
1578522428.916668,12.000000,0.000000,56.549526,-30.595776,-223.457428,-123.224709,164.313660,296.993500,103.880257,118.874092,-148.344986,960.700378,222.791901,151.043518,-44.693916,13.541425,301.648499,80.976166,5.384451,166.094833,312.430847,161.524536,17.981285,-73.888535,20.619116,417.204132,484.635834,63.099224,75.235390,-8.684798,-111.241608,-365.177490,-232.399368,-219.070282,0.000000,203.000000,-1.000000,,,,0.000000,4.000000,4.000000,4.000000,4.000000,4.000000,3.000000,4.000000,4.000000,4.000000,3.000000,4.000000,4.000000,4.000000,4.000000,4.000000,4.000000,4.000000,4.000000,4.000000,3.000000,4.000000,4.000000,4.000000,4.000000,4.000000,4.000000,4.000000,4.000000,4.000000,4.000000,4.000000,4.000000
1578522428.924517,13.000000,0.000000,58.031437,-30.565180,-230.926285,-129.768158,165.687805,276.183685,102.237915,112.601372,-158.453049,933.072998,255.389633,129.866837,-40.546661,14.553524,279.295563,102.946472,12.045733,182.338989,334.169708,140.850204,18.988945,-68.173615,-1.965606,400.376678,465.689667,69.189972,75.160156,-10.727395,-120.873955,-331.991791,-237.807983,-227.056335,0.000000,210.000000,-1.000000,,,,0.000000,4.000000,4.000000,4.000000,4.000000,4.000000,3.000000,4.000000,4.000000,4.000000,3.000000,4.000000,4.000000,4.000000,4.000000,4.000000,4.000000,4.000000,4.000000,4.000000,3.000000,4.000000,4.000000,4.000000,4.000000,4.000000,4.000000,4.000000,4.000000,4.000000,4.000000,4.000000,4.000000
1578522428.932267,14.000000,0.000000,58.486225,-30.534615,-235.823563,-137.330688,163.983658,243.599808,102.648499,105.309280,-157.268951,929.062988,222.826553,126.660049,-38.967651,14.026150,294.913696,99.253777,14.084970,159.079727,326.143219,173.529861,22.046879,-61.438778,3.164565,367.668610,434.454742,72.710526,81.238846,-9.691027,-110.496666,-318.839294,-223.211212,-225.290817,0.000000,201.000000,-1.000000,,,,0.000000,4.000000,4.000000,4.000000,4.000000,4.000000,3.000000,4.000000,4.000000,4.000000,3.000000,4.000000,4.000000,4.000000,4.000000,4.000000,4.000000,4.000000,4.000000,4.000000,3.000000,4.000000,4.000000,4.000000,4.000000,4.000000,4.000000,4.000000,4.000000,4.000000,4.000000,4.000000,4.000000
1578522428.940116,15.000000,0.000000,58.940559,-30.504080,-234.562103,-144.372849,162.794037,254.125443,103.058670,104.178329,-158.650146,938.390320,190.296021,138.328262,-40.467144,14.524944,314.618774,75.051964,-1.313730,131.741165,295.560669,163.099915,2.537652,-70.608109,22.135759,370.890686,433.507446,60.330120,64.747345,-23.527491,-107.309250,-315.956329,-231.705948,-225.578354,0.000000,220.000000,-1.000000,,,,0.000000,4.000000,4.000000,4.000000,4.000000,4.000000,3.000000,4.000000,4.000000,4.000000,3.000000,4.000000,4.000000,4.000000,4.000000,4.000000,4.000000,4.000000,4.000000,4.000000,3.000000,4.000000,4.000000,4.000000,4.000000,4.000000,4.000000,4.000000,4.000000,4.000000,4.000000,4.000000,4.000000
1578522428.947866,16.000000,0.000000,60.932903,-30.986397,-231.250610,-132.946426,169.810730,286.691833,102.955612,113.304924,-140.542770,928.221191,222.926239,143.830963,-42.477959,15.023240,300.458008,67.797424,-16.697033,125.455582,271.162537,130.629135,-20.028988,-83.358009,1.087982,383.340302,438.202148,70.013382,59.554394,-36.837296,-117.971169,-291.024994,-240.705002,-225.865601,0.000000,233.000000,-1.000000,,,,0.000000,4.000000,4.000000,4.000000,4.000000,4.000000,3.000000,4.000000,4.000000,4.000000,3.000000,4.000000,4.000000,4.000000,4.000000,4.000000,4.000000,4.000000,4.000000,4.000000,3.000000,4.000000,4.000000,4.000000,4.000000,4.000000,4.000000,4.000000,4.000000,4.000000,4.000000,4.000000,4.000000
1578522428.955715,17.000000,0.000000,62.410431,-30.442591,-232.044998,-112.300659,176.307587,297.687195,101.827011,126.012131,-117.325310,917.036560,238.600754,140.610199,-42.948303,11.931293,287.849854,76.447571,-16.680334,138.663452,281.147797,146.395935,-10.778190,-81.223373,-17.374643,370.649261,428.020355,77.122856,79.494843,-33.210716,-119.391663,-275.862183,-226.618149,-220.511520,0.000000,213.000000,-1.000000,,,,0.000000,4.000000,4.000000,4.000000,4.000000,4.000000,3.000000,4.000000,4.000000,4.000000,3.000000,4.000000,4.000000,4.000000,4.000000,4.000000,4.000000,4.000000,4.000000,4.000000,3.000000,4.000000,4.000000,4.000000,4.000000,4.000000,4.000000,4.000000,4.000000,3.000000,4.000000,4.000000,4.000000
1578522428.963465,18.000000,0.000000,62.348022,-30.412148,-233.351425,-111.162720,175.105637,265.081818,96.596977,130.501495,-126.951576,920.734924,234.259583,133.290115,-44.956638,5.252696,290.126129,77.909584,-14.612372,154.422226,302.917908,159.582870,3.591563,-77.552406,-0.947013,378.996582,434.259003,77.045731,81.979446,-28.049299,-116.195343,-297.637604,-216.647949,-212.598709,0.000000,143.000000,-1.000000,,,,0.000000,4.000000,4.000000,4.000000,4.000000,4.000000,3.000000,4.000000,4.000000,4.000000,3.000000,4.000000,4.000000,4.000000,4.000000,4.000000,4.000000,4.000000,4.000000,4.000000,3.000000,4.000000,4.000000,4.000000,4.000000,4.000000,4.000000,4.000000,4.000000,3.000000,4.000000,4.000000,4.000000
